File: root/data/Cu2O_111.xdi
# XDI/1.0 Demeter/0.9.26
# Beamline.name: BM08-LISA
# Column.1: energy eV
# Column.2: mutrans
# Column.3: murefer
# Element.edge: K
# Element.symbol: Cu
# Facility.name: ESRF
# Facility.xray_source: Bending magnet
# Mono.d_spacing: 3.134692
# Mono.name: Si(111)
# Mono.notes: LNT cooled
# Sample.formula: Cu2O
# Sample.name: Copper(I) oxide, Cuprous oxide
# Sample.reference: Cu metal foil
# Scan.start_time: 2023-01-17T17:51:02
# ///
# room temperature
#------------------------
#  energy  mutrans  murefer
  8829.62       0.466238       0.573906
  8849.4       0.458       0.568298
  8869.16       0.449821       0.562649
  8889.05       0.441757       0.556883
  8909.15       0.433808       0.551095
  8929.04       0.426318       0.54508
  8948.94       0.419915       0.540214
  8959.42       0.417907       0.539386
  8960.38       0.417839       0.539449
  8961.43       0.417781       0.539856
  8962.46       0.417783       0.540198
  8963.4       0.417845       0.54043
  8964.36       0.417962       0.540978
  8965.41       0.418157       0.541612
  8966.42       0.418458       0.542257
  8967.39       0.418852       0.543317
  8968.43       0.419427       0.544666
  8969.44       0.420301       0.547167
  8970.4       0.421059       0.54938
  8971.39       0.422228       0.552065
  8972.43       0.424037       0.556653
  8973.49       0.426649       0.56375
  8974.44       0.43036       0.574136
  8975.43       0.436012       0.590743
  8976.46       0.445237       0.623094
  8977.48       0.461418       0.701434
  8978.5       0.497039       0.920552
  8979.51       0.586249        1.18956
  8980.54       0.763686        1.30287
  8981.52       0.842772        1.31373
  8982.51       0.782729        1.29411
  8983.57       0.7556        1.32351
  8984.62       0.783296        1.39119
  8985.62       0.828577        1.4545
  8986.61       0.872525        1.52579
  8987.65       0.922315        1.62363
  8988.68       0.973269        1.7514
  8989.67        1.03043        1.89829
  8990.68        1.10045        2.03782
  8991.7        1.17513        2.15199
  8992.68        1.22833        2.22155
  8993.66        1.25535        2.22888
  8994.7        1.27187        2.19131
  8995.73        1.27335        2.14223
  8996.68        1.25072        2.10351
  8997.66        1.2167        2.08533
  8998.67        1.18513        2.09612
  8999.65        1.15712        2.13998
  9000.64        1.13398        2.20667
  9001.66        1.11964        2.26315
  9002.65        1.11441        2.27746
  9003.6        1.11684        2.24768
  9004.6        1.12317        2.1975
  9005.65        1.13013        2.14939
  9006.65        1.13773        2.11334
  9007.62        1.147        2.08309
  9008.64        1.15679        2.0532
  9010.2        1.16505        2.02218
  9012.48        1.15832        2.02724
  9014.7        1.1516        2.05774
  9017.12        1.12383        2.11764
  9019.6        1.09383        2.18571
  9022.12        1.0773        2.24776
  9024.72        1.06584        2.28622
  9027.37        1.06082        2.25414
  9030.15        1.06133        2.17756
  9032.98        1.07218        2.11538
  9035.94        1.08856        2.09308
  9038.93        1.1044        2.10406
  9042.03        1.12274        2.11948
  9045.19        1.13863        2.11286
  9048.45        1.1363        2.13314
  9051.84        1.1246        2.14991
  9055.22        1.12075        2.15565
  9058.78        1.11788        2.1884
  9062.3        1.11264        2.21504
  9065.96        1.11273        2.23839
  9069.66        1.11688        2.27224
  9073.43        1.12075        2.27387
  9077.27        1.12236        2.22654
  9081.19        1.12162        2.16971
  9085.15        1.11691        2.12807
  9089.18        1.10476        2.10926
  9093.28        1.08924        2.06857
  9097.44        1.07522        2.03463
  9101.66        1.06565        2.05018
  9106.02        1.06237        2.09695
  9110.48        1.0663        2.1341
  9115        1.07352        2.14341
  9119.59        1.07611        2.14732
  9124.28        1.07579        2.19795
  9129.04        1.07516        2.26666
  9133.78        1.07509        2.27124
  9138.72        1.07675        2.24251
  9143.66        1.07672        2.18626
  9148.7        1.07173        2.10674
  9153.72        1.06494        2.02544
  9158.92        1.05866        1.98425
  9164.09        1.05465        2.01941
  9169.4        1.05258        2.08592
  9174.82        1.05044        2.11917
  9180.24        1.04836        2.11647
  9185.84        1.04575        2.10783
  9191.49        1.04206        2.10132
  9197.23        1.03753        2.09392
  9203.11        1.03217        2.12802
  9209.05        1.0263        2.15964
  9215.1        1.02026        2.15386
  9221.25        1.01503        2.12381
  9227.46        1.01127        2.07246
  9233.68        1.00824        2.02719
  9240        1.00586        2.0106
  9246.49        1.00393        2.01589
  9252.9        1.00162        2.01784
  9259.38       0.998893        2.0225
  9265.96       0.995796        2.03307
  9272.55       0.992173        2.04341
  9279.3       0.988238        2.04774
  9286.06       0.98328        2.05313
  9292.97       0.978563        2.05592
  9300.03       0.973978        2.05144
  9307.15       0.969447        2.03255
  9314.26       0.964762        2.01096
  9321.48       0.96018        1.99609
  9328.73       0.955804        1.99132
  9336.1       0.951461        1.97851
  9343.49       0.947263        1.96281
  9350.91       0.942935        1.96318
  9358.4       0.938541        1.96357
  9366.06       0.934033        1.96571
  9373.87       0.929574        1.9679
  9381.69       0.925305        1.96952
  9389.51       0.921212        1.96877
  9397.43       0.917162        1.96603
  9405.4       0.913158        1.95761
  9413.4       0.909141        1.94362
  9421.38       0.905122        1.93189
  9429.46       0.901068        1.92629
  9437.67       0.896845        1.92144
  9445.96       0.89241        1.91376
  9454.36       0.88783        1.90428
  9462.79       0.883083        1.89856
  9471.32       0.878367        1.89317
  9479.91       0.873608        1.89033
  9488.72       0.868802        1.88955
  9497.47       0.864107        1.88923
  9506.39       0.859455        1.88816
  9515.4       0.854894        1.88314
  9524.37       0.850419        1.87346
  9533.49       0.845966        1.86347
  9542.76       0.841389        1.85688
  9552.13       0.836879        1.85066
  9561.49       0.8324        1.84503
  9570.9       0.82784        1.83879
  9580.35       0.823345        1.83241
  9589.8       0.818829        1.82638
  9599.31       0.814319        1.82179
  9609       0.809775        1.81754
  9618.74       0.805216        1.81353
  9628.62       0.800561        1.80971
  9638.59       0.79588        1.80488
  9648.67       0.791113        1.7991
  9658.83       0.786295        1.79289
  9668.99       0.781678        1.78652
  9679.24       0.776769        1.78039
  9689.38       0.772046        1.77432
  9699.71       0.767306        1.76821
  9710.26       0.762548        1.76228
  9720.85       0.757826        1.75638
  9731.49       0.753135        1.75087
  9742.18       0.748446        1.74568
  9752.94       0.743785        1.74084
  9763.84       0.739077        1.73594
  9774.66       0.734392        1.73061
  9785.65       0.729705        1.72496
  9796.75       0.724897        1.7195
  9807.9       0.720172        1.71384
  9819.14       0.715417        1.70778
  9830.62       0.71055        1.70164
  9836.36       0.708098        1.69837