File: root/data/Cu_foil_111.xdi
# XDI/1.0 Demeter/0.9.26
# Beamline.name: BM08-LISA
# Column.1: energy eV
# Column.2: mutrans
# Element.edge: K
# Element.symbol: Cu
# Facility.name: ESRF
# Facility.xray_source: Bending magnet
# Mono.d_spacing: 3.134692
# Mono.name: Si(111)
# Mono.notes: LNT cooled
# Sample.formula: Cu
# Sample.name: Cu metal foil
# Scan.start_time: 2023-06-27T17:30:10
# ///
# room temperature
#------------------------
#   energy  mutrans
  8780.33       0.214107
  8789.93       0.212275
  8799.75       0.210375
  8809.62       0.208329
  8819.55       0.206246
  8829.56       0.204207
  8839.54       0.202197
  8849.5       0.200211
  8859.4       0.198292
  8869.29       0.196339
  8879.3       0.194499
  8889.27       0.19261
  8899.32       0.190833
  8909.42       0.189116
  8919.35       0.187565
  8929.29       0.186174
  8939.17       0.185096
  8949.01       0.184702
  8958.99       0.185816
  8959.46       0.185972
  8960       0.186147
  8960.5       0.186309
  8960.98       0.186507
  8961.56       0.18673
  8962.01       0.18696
  8962.51       0.187179
  8963.03       0.187374
  8963.48       0.187659
  8963.99       0.187957
  8964.51       0.188276
  8965       0.188645
  8965.54       0.189049
  8966.04       0.189476
  8966.52       0.189996
  8967.06       0.190471
  8967.52       0.191033
  8968.01       0.191625
  8968.56       0.192368
  8969.02       0.193172
  8969.53       0.194101
  8970.05       0.195118
  8970.52       0.196174
  8971.07       0.197217
  8971.57       0.198536
  8972.06       0.200088
  8972.61       0.201919
  8973.1       0.204171
  8973.6       0.206675
  8974.12       0.209722
  8974.57       0.213461
  8975.09       0.218234
  8975.6       0.224501
  8976.07       0.233052
  8976.62       0.245223
  8977.13       0.263544
  8977.61       0.292659
  8978.16       0.341745
  8978.65       0.426821
  8979.15       0.534044
  8979.67       0.638517
  8980.12       0.71106
  8980.65       0.749998
  8981.16       0.764448
  8981.63       0.761709
  8982.18       0.749707
  8982.69       0.738188
  8983.17       0.736168
  8983.73       0.747446
  8984.19       0.769197
  8984.69       0.795218
  8985.22       0.819718
  8985.7       0.843604
  8986.23       0.866614
  8986.75       0.892932
  8987.22       0.924129
  8987.78       0.961123
  8988.28        1.00411
  8988.78        1.05208
  8989.33        1.10416
  8989.79        1.15856
  8990.3        1.21316
  8990.83        1.26572
  8991.28        1.31476
  8991.82        1.35854
  8992.33        1.39502
  8992.8        1.42117
  8993.36        1.43475
  8993.85        1.43546
  8994.35        1.42592
  8994.9        1.40989
  8995.36        1.39094
  8995.86        1.37156
  8996.38        1.35315
  8996.84        1.33709
  8997.36        1.32443
  8997.87        1.31638
  8998.34        1.31382
  8998.89        1.31771
  8999.39        1.32842
  8999.87        1.34563
  9000.42        1.36789
  9000.88        1.39288
  9001.37        1.4172
  9001.9        1.43755
  9002.35        1.45079
  9002.85        1.45502
  9003.37        1.45005
  9003.82        1.43755
  9004.36        1.41994
  9004.87        1.4002
  9005.34        1.38076
  9005.88        1.3634
  9006.36        1.34873
  9006.83        1.33622
  9007.36        1.32515
  9007.82        1.31424
  9008.3        1.30306
  9008.84        1.29177
  9009.3        1.2812
  9011.52        1.26073
  9013.68        1.2717
  9016.05        1.30022
  9018.45        1.34737
  9020.89        1.39453
  9023.48        1.43757
  9026.09        1.44865
  9028.84        1.40617
  9031.6        1.35033
  9034.47        1.3157
  9037.37        1.30919
  9040.4        1.3228
  9043.51        1.32773
  9046.76        1.32546
  9050.07        1.34374
  9053.46        1.34879
  9056.95        1.35955
  9060.51        1.38467
  9064.12        1.40073
  9067.87        1.42216
  9071.53        1.44209
  9075.38        1.42683
  9079.3        1.38361
  9083.2        1.34597
  9087.17        1.32156
  9091.29        1.30296
  9095.41        1.26859
  9099.59        1.25742
  9103.9        1.28163
  9108.32        1.31581
  9112.82        1.33477
  9117.36        1.33533
  9121.99        1.3488
  9126.7        1.40018
  9131.43        1.43253
  9136.28        1.4218
  9141.13        1.39286
  9146.11        1.34254
  9151.18        1.28119
  9156.32        1.22807
  9161.5        1.22108
  9166.81        1.26234
  9172.15        1.30298
  9177.54        1.31373
  9183.09        1.30647
  9188.77        1.30199
  9194.48        1.29443
  9200.29        1.29964
  9206.14        1.33074
  9212.09        1.33919
  9218.12        1.32727
  9224.25        1.29713
  9230.49        1.25901
  9236.79        1.23318
  9243.13        1.23004
  9249.56        1.23275
  9256.03        1.23433
  9262.52        1.23865
  9269.16        1.24661
  9275.82        1.25183
  9282.67        1.25377
  9289.49        1.2567
  9296.44        1.25716
  9303.54        1.24808
  9310.68        1.23269
  9317.82        1.21741
  9325.09        1.21034
  9332.35        1.2048
  9339.71        1.1922
  9347.14        1.18575
  9354.57        1.18604
  9362.13        1.18638
  9369.75        1.18745
  9377.49        1.18837
  9385.31        1.18849
  9393.2        1.18704
  9401.17        1.18312
  9409.27        1.1745
  9417.26        1.16386
  9425.29        1.15708
  9433.49        1.15326
  9441.75        1.14846
  9450.11        1.14134
  9458.5        1.13509
  9466.91        1.13097
  9475.49        1.12705
  9484.13        1.1252
  9492.93        1.1245
  9501.88        1.12366
  9510.88        1.12142
  9519.91        1.11568
  9528.95        1.10779
  9538.18        1.10138
  9547.49        1.09616
  9556.9        1.09146
  9566.32        1.08661
  9575.8        1.08164
  9585.26        1.07651
  9594.77        1.07224
  9604.35        1.06856
  9614.05        1.06519
  9623.83        1.06175
  9633.75        1.05821
  9643.77        1.05392
  9653.8        1.04922
  9663.95        1.04412
  9674.11        1.03906
  9684.41        1.03396
  9694.68        1.02892
  9705.06        1.0242
  9715.72        1.01935
  9726.35        1.01471
  9737.1        1.01024
  9747.86        1.00617
  9758.58        1.00226
  9769.5       0.99815
  9780.35       0.9937
  9791.26       0.989272
  9802.34       0.984796
  9813.57       0.980125
  9824.89       0.975397
  9836.37       0.970474