File: root/data/CuO_111.xdi
# XDI/1.0 Demeter/0.9.26
# Beamline.name: BM08-LISA
# Column.1: energy eV
# Column.2: mutrans
# Column.3: murefer
# Element.edge: K
# Element.symbol: Cu
# Facility.name: ESRF
# Facility.xray_source: Bending magnet
# Mono.d_spacing: 3.134692
# Mono.name: Si(111)
# Mono.notes: LNT cooled
# Sample.formula: CuO
# Sample.name: Copper(II) oxide, cupric oxide
# Sample.reference: Cu metal foil
# Scan.start_time: 2023-01-17T20:09:17
# ///
# room temperature
#------------------------
#  energy  mutrans  murefer
  8830.16        1.01078       0.589901
  8849.82       0.998944       0.585023
  8869.59       0.987274       0.580232
  8889.51       0.975632       0.575412
  8909.54       0.964212       0.570532
  8929.55       0.953271       0.565954
  8949.37       0.94351       0.563096
  8959.89       0.939671       0.564024
  8960.87       0.939451       0.56415
  8961.86       0.939195       0.564851
  8962.86       0.939041       0.565382
  8963.86       0.938889       0.565795
  8964.8       0.938787       0.566605
  8965.8       0.938731       0.567576
  8966.84       0.938749       0.568666
  8967.86       0.938859       0.569917
  8968.84       0.939063       0.571689
  8969.82       0.93947       0.575266
  8970.83       0.939788       0.57737
  8971.81       0.940408       0.581561
  8972.8       0.94133       0.58774
  8973.86       0.942709       0.59685
  8974.85       0.944655       0.610438
  8975.8       0.948052       0.633729
  8976.79       0.95479       0.680611
  8977.84       0.960988       0.805598
  8978.89       0.965776        1.08686
  8979.85       0.97897        1.29737
  8980.86        1.00064        1.35008
  8981.88        1.03723        1.32721
  8982.87        1.10968        1.31529
  8983.88        1.20847        1.36496
  8984.93        1.26557        1.433
  8985.97        1.27368        1.49699
  8986.93        1.28187        1.57496
  8987.93        1.32402        1.67856
  8988.98        1.39242        1.80865
  8990        1.4704        1.94949
  8990.96        1.55527        2.07498
  8991.97        1.61189        2.17017
  8992.98        1.64362        2.21376
  8993.95        1.6721        2.19902
  8994.96        1.70365        2.15279
  8996        1.73878        2.10234
  8996.99        1.75478        2.06847
  8997.93        1.74645        2.0601
  8998.93        1.72949        2.08233
  8999.96        1.70794        2.13593
  9000.94        1.67668        2.2041
  9001.92        1.64369        2.24935
  9002.93        1.61888        2.24867
  9003.91        1.60063        2.21242
  9004.87        1.58465        2.16482
  9005.9        1.57061        2.1242
  9006.94        1.56219        2.09298
  9007.9        1.56011        2.06391
  9008.87        1.56196        2.03567
  9010.44        1.56611        2.01101
  9012.71        1.56468        2.01976
  9014.95        1.55849        2.05124
  9017.32        1.54731        2.11056
  9019.78        1.52383        2.17616
  9022.31        1.49702        2.23623
  9024.91        1.4811        2.26899
  9027.54        1.4764        2.2316
  9030.3        1.48775        2.15593
  9033.12        1.50814        2.09691
  9036.08        1.53133        2.07604
  9039.08        1.55519        2.08701
  9042.17        1.57352        2.09993
  9045.32        1.58487        2.09232
  9048.58        1.59358        2.11152
  9051.97        1.59079        2.12685
  9055.35        1.57954        2.13456
  9058.92        1.56733        2.16781
  9062.43        1.55537        2.19348
  9066.09        1.54571        2.21745
  9069.79        1.53732        2.25061
  9073.53        1.53053        2.25007
  9077.38        1.52554        2.20342
  9081.3        1.522        2.14875
  9085.24        1.51808        2.10848
  9089.26        1.51437        2.08952
  9093.35        1.51149        2.04826
  9097.53        1.50783        2.01645
  9101.76        1.50501        2.0332
  9106.12        1.50231        2.07933
  9110.56        1.4996        2.11502
  9115.09        1.49622        2.12344
  9119.71        1.49588        2.12781
  9124.39        1.49973        2.17787
  9129.11        1.50526        2.24236
  9133.86        1.50752        2.24437
  9138.81        1.50592        2.21688
  9143.75        1.50273        2.16138
  9148.81        1.4988        2.08353
  9153.81        1.49384        2.00502
  9159.01        1.48708        1.96697
  9164.18        1.4775        2.00355
  9169.47        1.46619        2.06876
  9174.89        1.45704        2.10049
  9180.31        1.45511        2.09713
  9185.9        1.45745        2.08818
  9191.54        1.45664        2.08149
  9197.28        1.45166        2.0748
  9203.16        1.44628        2.10866
  9209.09        1.44046        2.13868
  9215.13        1.43746        2.13228
  9221.28        1.43817        2.10281
  9227.49        1.43761        2.05213
  9233.73        1.43148        2.0085
  9240.1        1.42421        1.99346
  9246.59        1.42045        1.99867
  9252.96        1.41835        2.00057
  9259.46        1.41542        2.00517
  9266.04        1.41089        2.01577
  9272.67        1.40393        2.0261
  9279.44        1.39726        2.0298
  9286.28        1.39308        2.03574
  9293.2        1.38957        2.03816
  9300.26        1.38534        2.03295
  9307.39        1.38012        2.01414
  9314.48        1.37382        1.99356
  9321.67        1.36807        1.97973
  9328.9        1.36419        1.97477
  9336.25        1.36027        1.96197
  9343.64        1.35521        1.94716
  9351.07        1.3493        1.94789
  9358.58        1.34448        1.94809
  9366.22        1.3417        1.95017
  9374.01        1.33946        1.95233
  9381.84        1.33587        1.95383
  9389.67        1.3311        1.95325
  9397.6        1.3252        1.95086
  9405.56        1.31895        1.94245
  9413.53        1.31342        1.92864
  9421.54        1.30844        1.91742
  9429.65        1.30254        1.9122
  9437.85        1.29645        1.90773
  9446.13        1.29114        1.90001
  9454.54        1.28633        1.89065
  9462.95        1.28182        1.88552
  9471.56        1.2779        1.88022
  9480.09        1.2737        1.87711
  9488.89        1.2684        1.87672
  9497.61        1.2627        1.87684
  9506.48        1.25747        1.87561
  9515.46        1.25242        1.87063
  9524.45        1.2467        1.86111
  9533.52        1.24094        1.85145
  9542.75        1.23586        1.84497
  9552.09        1.23087        1.83904
  9561.44        1.22575        1.8335
  9570.85        1.22064        1.82767
  9580.27        1.2157        1.82121
  9589.76        1.2105        1.81537
  9599.32        1.20468        1.81102
  9609.06        1.19874        1.80687
  9618.83        1.19312        1.80289
  9628.71        1.18742        1.7992
  9638.69        1.18167        1.79476
  9648.75        1.17612        1.78912
  9658.9        1.17064        1.78273
  9669.08        1.16547        1.77645
  9679.28        1.16009        1.7704
  9689.43        1.15474        1.76428
  9699.77        1.14953        1.75832
  9710.34        1.14409        1.75266
  9720.94        1.13843        1.74684
  9731.61        1.1326        1.74135
  9742.37        1.12674        1.73631
  9753.13        1.12073        1.73161
  9764.05        1.11478        1.72676
  9774.84        1.109        1.72154
  9785.79        1.10327        1.71612
  9796.88        1.09768        1.71068
  9807.99        1.09204        1.70515
  9819.22        1.08647        1.69929
  9830.68        1.0807        1.69328
  9836.41        1.07781        1.69011