File: root/data/Fe2O3_111.xdi
# XDI/1.0 Demeter/0.9.26
# Beamline.name: BM08-LISA
# Column.1: energy eV
# Column.2: mutrans
# Column.3: murefer
# Element.edge: K
# Element.symbol: Fe
# Facility.name: ESRF
# Facility.xray_source: Bending magnet
# Mono.d_spacing: 3.134692
# Mono.name: Si(111)
# Mono.notes: LNT cooled
# Sample.formula: Fe2O3
# Sample.name: Iron(III) oxide, ferric oxide
# Sample.reference: Fe metal foil
# Scan.start_time: 2021-07-14T08:49:39
# ///
# room temperature
#------------------------
#  energy  mutrans  murefer
  7012.45        1.76442       -1.58369
  7022.22        1.75787       -1.58876
  7032.07        1.75097       -1.59334
  7042.06        1.74488       -1.59891
  7052.06        1.73851       -1.60378
  7061.97        1.7325       -1.60858
  7071.85        1.72677       -1.61305
  7081.72        1.72167       -1.61703
  7091.79        1.7178       -1.61998
  7092.35        1.71763       -1.62013
  7092.96        1.71744       -1.62016
  7093.59        1.71734       -1.62028
  7094.17        1.71718       -1.62021
  7094.73        1.71712       -1.62035
  7095.36        1.71702       -1.6203
  7095.96        1.71697       -1.62039
  7096.53        1.71686       -1.62035
  7097.16        1.71684       -1.6203
  7097.78        1.71685       -1.62025
  7098.34        1.71687       -1.62019
  7098.92        1.71684       -1.61999
  7099.55        1.71692       -1.61988
  7100.14        1.71697       -1.6197
  7100.71        1.71705       -1.61944
  7101.32        1.7172       -1.61916
  7101.93        1.71737       -1.61876
  7102.48        1.71756       -1.6183
  7103.09        1.71777       -1.61785
  7103.71        1.71809       -1.6172
  7104.27        1.71844       -1.61646
  7104.87        1.71883       -1.61555
  7105.48        1.71933       -1.61448
  7106.05        1.71997       -1.6132
  7106.64        1.72065       -1.61147
  7107.27        1.72147       -1.60925
  7107.86        1.72246       -1.60643
  7108.43        1.72366       -1.60225
  7109.04        1.72518       -1.59635
  7109.65        1.72712       -1.58728
  7110.21        1.72988       -1.57211
  7110.82        1.73366       -1.54383
  7111.44        1.73933       -1.49105
  7111.99        1.74894       -1.41548
  7112.59        1.76831       -1.34486
  7113.22        1.79733       -1.29431
  7113.8        1.81752       -1.25478
  7114.38        1.83748       -1.2206
  7115        1.84635       -1.1938
  7115.59        1.84053       -1.18202
  7116.15        1.83798       -1.17313
  7116.77        1.84109       -1.16472
  7117.38        1.84802       -1.1488
  7117.93        1.85416       -1.11907
  7118.53        1.86088       -1.07514
  7119.14        1.87311       -1.0231
  7119.69        1.89532      -0.966425
  7120.3        1.93155      -0.905505
  7120.94        1.98904      -0.838561
  7121.51        2.07052      -0.774236
  7122.09        2.18533      -0.712735
  7122.71        2.34144      -0.651817
  7123.3        2.52779      -0.587849
  7123.89        2.70724      -0.523361
  7124.52        2.85584      -0.463076
  7125.13        2.99015      -0.404502
  7125.67        3.12735      -0.341203
  7126.29        3.28081      -0.262828
  7126.92        3.43648      -0.169308
  7127.5        3.57365      -0.0678642
  7128.1        3.68408       0.0323487
  7128.73        3.77438       0.129485
  7129.32        3.84392       0.216896
  7129.9        3.88502       0.280915
  7130.53        3.90111       0.315365
  7131.16        3.90641       0.331481
  7131.73        3.91481       0.34166
  7132.34        3.93099       0.35188
  7132.97        3.94967       0.360265
  7133.55        3.96083       0.358926
  7134.15        3.96028       0.342511
  7134.78        3.94718       0.312699
  7135.37        3.92407       0.273889
  7135.94        3.89733       0.23418
  7136.56        3.87212       0.201055
  7137.18        3.85081       0.177019
  7137.76        3.83323       0.15995
  7138.39        3.81475       0.145241
  7139.01        3.79354       0.130272
  7139.58        3.7671       0.11318
  7140.19        3.73777       0.095034
  7140.83        3.70753       0.0764903
  7141.44        3.67766       0.0573994
  7142.03        3.65038       0.0386722
  7142.64        3.62706       0.0209483
  7143.25        3.60693       0.00484867
  7143.83        3.59142      -0.00833159
  7144.45        3.58136      -0.0171924
  7145.1        3.57655      -0.0206019
  7145.67        3.57631      -0.0194713
  7146.27        3.5786      -0.0143298
  7146.9        3.58124      -0.00603759
  7147.51        3.58189       0.00256813
  7148.08        3.57784       0.00997799
  7148.71        3.5681       0.0138577
  7149.34        3.55365       0.0144228
  7149.9        3.53625       0.0112764
  7150.49        3.51738       0.00621888
  7151.12        3.4977      -0.000457322
  7151.71        3.47863      -0.00645349
  7154.2        3.41299      -0.030748
  7156.78        3.34785      -0.0678474
  7159.43        3.2946      -0.0953489
  7162.18        3.28688      -0.102285
  7164.99        3.31064      -0.104271
  7167.89        3.34679      -0.0983505
  7170.83        3.40798      -0.081842
  7173.9        3.50333      -0.0580584
  7177        3.5812      -0.0449327
  7180.17        3.60795      -0.0500264
  7183.49        3.60839      -0.0483748
  7186.9        3.59604      -0.0384352
  7190.4        3.58553      -0.0148182
  7193.97        3.56745       0.00291809
  7197.55        3.54129      -0.0220141
  7201.2        3.51472      -0.0756374
  7204.97        3.48282      -0.140558
  7208.81        3.46302      -0.170731
  7212.65        3.45379      -0.115155
  7216.57        3.45601      -0.0130273
  7220.58        3.47056       0.0487465
  7224.72        3.47616       0.0195372
  7228.88        3.4693      -0.0682642
  7233.08        3.45626      -0.158901
  7237.41        3.45616      -0.207781
  7241.84        3.45784      -0.207196
  7246.33        3.44411      -0.186699
  7250.9        3.4277      -0.183326
  7255.56        3.42432      -0.202033
  7260.34        3.43772      -0.194488
  7265.12        3.45336      -0.171203
  7269.95        3.46003      -0.15116
  7274.92        3.45848      -0.123032
  7279.98        3.46841      -0.106413
  7285.12        3.46948      -0.0850063
  7290.41        3.45988      -0.0848127
  7295.71        3.44711      -0.140763
  7301.14        3.43117      -0.206373
  7306.53        3.40706      -0.251365
  7312.01        3.38325      -0.272173
  7317.53        3.35829      -0.285352
  7323.2        3.34508      -0.29505
  7329.01        3.35425      -0.29356
  7334.85        3.37386      -0.29701
  7340.77        3.3945      -0.297485
  7346.76        3.39978      -0.272232
  7352.87        3.38834      -0.245073
  7358.85        3.37518      -0.226853
  7364.98        3.35898      -0.219562
  7371.16        3.3397      -0.23936
  7377.44        3.32509      -0.293773
  7383.8        3.31715      -0.360041
  7390.28        3.30862      -0.381849
  7396.89        3.30629      -0.374159
  7403.52        3.31577      -0.371486
  7410.18        3.32495      -0.369348
  7416.81        3.3267      -0.370444
  7423.57        3.3185      -0.383433
  7430.47        3.30228      -0.400631
  7437.5        3.283      -0.405896
  7444.48        3.263      -0.39825
  7451.65        3.24972      -0.391317
  7458.9        3.24517      -0.395689
  7466.19        3.24494      -0.407835
  7473.52        3.24418      -0.430376
  7480.83        3.24414      -0.448012
  7488.29        3.23939      -0.468278
  7495.92        3.23048      -0.486313
  7503.58        3.22134      -0.489858
  7511.33        3.21219      -0.493854
  7519.18        3.20295      -0.503414
  7527.06        3.19603      -0.509392
  7535.05        3.18832      -0.513489
  7543.06        3.18163      -0.522236
  7551.23        3.17555      -0.529554
  7559.35        3.16852      -0.529366
  7567.6        3.16044      -0.532167
  7575.9        3.15306      -0.546429
  7584.23        3.14443      -0.565911
  7592.65        3.13587      -0.578456
  7601.33        3.1262      -0.585388
  7609.97        3.11705      -0.595391
  7618.59        3.11038      -0.604964
  7627.34        3.09928      -0.60302
  7636.15        3.10203      -0.62148
  7645.09        3.0894      -0.634571
  7654.16        3.07886      -0.644733
  7663.42        3.07032      -0.651323
  7672.82        3.06131      -0.655213
  7682.06        3.05433      -0.659463
  7691.43        3.04666      -0.667201
  7700.94        3.04156      -0.678513
  7710.5        3.03145      -0.685871
  7720.33        3.02671      -0.700951
  7730.06        3.01723      -0.710256
  7739.89        3.00754      -0.718392
  7749.63        2.99824      -0.727499
  7759.46        2.9884      -0.736219
  7769.39        2.97847      -0.746808
  7779.41        2.96963      -0.756787
  7789.58        2.96173      -0.765459
  7799.79        2.95385      -0.773207
  7810.09        2.9456      -0.779961
  7820.53        2.93717      -0.78742
  7831.05        2.92845      -0.795521
  7841.71        2.91957      -0.803777
  7852.38        2.91036      -0.812706
  7863.01        2.90099      -0.821967
  7873.8        2.89145      -0.831681
  7884.71        2.88262      -0.8412
  7895.66        2.87384      -0.850039
  7906.79        2.8641      -0.85824
  7917.73        2.85632      -0.867683
  7928.71        2.84742      -0.876124
  7939.91        2.8343      -0.880154
  7951.22        2.82918      -0.891343
  7962.62        2.82015      -0.899102
  7973.93        2.8108      -0.906774