File: root/data/Fe_foil_311.xdi
# XDI/1.0 Demeter/0.9.26
# Beamline.name: BM08-LISA
# Column.1: energy eV
# Column.2: mutrans
# Element.edge: K
# Element.symbol: Fe
# Facility.name: ESRF
# Facility.xray_source: Bending magnet
# Mono.d_spacing: 1.637039
# Mono.name: Si(311)
# Mono.notes: LNT cooled
# Sample.formula: Fe
# Sample.name: Fe metal foil
# Scan.start_time: 2023-10-03T19:47:09
# ///
# room temperature
#------------------------
#   energy  mutrans
  6912.06       -1.5227
  6921.91       -1.52618
  6931.8       -1.52919
  6941.72       -1.53205
  6951.79       -1.53496
  6961.75       -1.5379
  6971.74       -1.54064
  6981.79       -1.5436
  6991.77       -1.5464
  7001.73       -1.54925
  7011.78       -1.5521
  7021.9       -1.5551
  7031.94       -1.55771
  7042.06       -1.56024
  7052.06       -1.56296
  7062.07       -1.56536
  7071.96       -1.56737
  7081.89       -1.56901
  7091.82       -1.56958
  7092.21       -1.56963
  7092.6       -1.56954
  7093       -1.56952
  7093.4       -1.56953
  7093.8       -1.56949
  7094.19       -1.56941
  7094.59       -1.56941
  7094.99       -1.56925
  7095.4       -1.56921
  7095.8       -1.56907
  7096.19       -1.56895
  7096.6       -1.56874
  7097       -1.5689
  7097.4       -1.56858
  7097.8       -1.56845
  7098.21       -1.56833
  7098.61       -1.56832
  7099.01       -1.56806
  7099.41       -1.5678
  7099.82       -1.56756
  7100.22       -1.56736
  7100.62       -1.56709
  7101.02       -1.56673
  7101.42       -1.5665
  7101.81       -1.56617
  7102.2       -1.5658
  7102.6       -1.56548
  7103       -1.56501
  7103.4       -1.56453
  7103.79       -1.56404
  7104.19       -1.5634
  7104.59       -1.56276
  7104.98       -1.56206
  7105.38       -1.56115
  7105.78       -1.56047
  7106.18       -1.55948
  7106.57       -1.55806
  7106.97       -1.5567
  7107.37       -1.555
  7107.77       -1.55318
  7108.16       -1.55078
  7108.55       -1.54791
  7108.95       -1.54422
  7109.35       -1.53931
  7109.74       -1.53264
  7110.14       -1.52252
  7110.54       -1.50629
  7110.94       -1.47775
  7111.32       -1.43126
  7111.71       -1.37148
  7112.11       -1.31856
  7112.51       -1.28004
  7112.9       -1.25148
  7113.29       -1.22628
  7113.69       -1.20263
  7114.08       -1.18042
  7114.47       -1.16052
  7114.87       -1.14467
  7115.27       -1.13305
  7115.67       -1.12558
  7116.07       -1.12129
  7116.46       -1.11773
  7116.87       -1.11152
  7117.28       -1.09907
  7117.68       -1.07811
  7118.08       -1.04823
  7118.49       -1.01164
  7118.89      -0.973933
  7119.29      -0.935797
  7119.69      -0.895181
  7120.09      -0.85271
  7120.49      -0.808548
  7120.89      -0.764311
  7121.29      -0.72333
  7121.7      -0.686084
  7122.1      -0.65426
  7122.5      -0.626793
  7122.89      -0.602354
  7123.3      -0.578867
  7123.7      -0.557414
  7124.09      -0.536658
  7124.49      -0.51688
  7124.9      -0.497323
  7125.29      -0.478644
  7125.68      -0.460637
  7126.08      -0.443319
  7126.48      -0.425867
  7126.88      -0.408226
  7127.27      -0.388991
  7127.68      -0.367609
  7128.08      -0.344424
  7128.47      -0.320604
  7128.86      -0.296686
  7129.26      -0.272385
  7129.66      -0.249124
  7130.05      -0.231451
  7130.44      -0.216227
  7130.84      -0.205924
  7131.23      -0.203628
  7131.63      -0.208536
  7132.02      -0.220204
  7132.42      -0.237228
  7132.82      -0.256746
  7133.22      -0.278062
  7133.61      -0.298099
  7134.01      -0.318531
  7134.41      -0.335198
  7134.8      -0.348775
  7135.2      -0.362572
  7135.6      -0.372953
  7136      -0.380773
  7136.4      -0.385504
  7136.79      -0.388469
  7137.18      -0.389262
  7137.59      -0.387106
  7137.98      -0.384509
  7138.38      -0.378897
  7138.77      -0.373167
  7139.18      -0.365754
  7139.57      -0.359861
  7139.96      -0.353002
  7140.36      -0.347447
  7140.76      -0.343055
  7141.16      -0.339862
  7141.56      -0.338789
  7142.63      -0.342
  7144.81      -0.355494
  7147.12      -0.333723
  7149.47      -0.288525
  7151.9      -0.267514
  7154.38      -0.261546
  7156.95      -0.274004
  7159.63      -0.279253
  7162.38      -0.283376
  7165.26      -0.29489
  7168.21      -0.302711
  7171.23      -0.315029
  7174.29      -0.345614
  7177.39      -0.385571
  7180.6      -0.408142
  7183.89      -0.401672
  7187.26      -0.373144
  7190.71      -0.33283
  7194.25      -0.29918
  7197.85      -0.317173
  7201.52      -0.365032
  7205.24      -0.419858
  7209.03      -0.433566
  7212.95      -0.351287
  7216.91      -0.229625
  7220.89      -0.174277
  7224.98      -0.224806
  7229.23      -0.328476
  7233.53      -0.425373
  7237.95      -0.472948
  7242.44      -0.463254
  7246.97      -0.428392
  7251.56      -0.420318
  7256.24      -0.439293
  7261.08      -0.428762
  7265.89      -0.410466
  7270.72      -0.385968
  7275.7      -0.353967
  7280.73      -0.338351
  7285.86      -0.311618
  7291.06      -0.315325
  7296.25      -0.378552
  7301.53      -0.438078
  7306.89      -0.472155
  7312.33      -0.478843
  7317.83      -0.47978
  7323.45      -0.482855
  7329.19      -0.485056
  7334.97      -0.498961
  7340.81      -0.504036
  7346.71      -0.476011
  7352.74      -0.438046
  7358.81      -0.409408
  7364.92      -0.392572
  7371.14      -0.405913
  7377.46      -0.460983
  7383.85      -0.529038
  7390.28      -0.544237
  7396.83      -0.533057
  7403.58      -0.533232
  7410.29      -0.532856
  7417.08      -0.533131
  7423.94      -0.544149
  7430.92      -0.552798
  7437.93      -0.547463
  7445      -0.527992
  7452.17      -0.515446
  7459.32      -0.515163
  7466.65      -0.530756
  7474.1      -0.554451
  7481.68      -0.571531
  7489.28      -0.59101
  7496.98      -0.602327
  7504.8      -0.600071
  7512.55      -0.600497
  7520.46      -0.606088
  7528.42      -0.607372
  7536.41      -0.608402
  7544.39      -0.61385
  7552.48      -0.61652
  7560.64      -0.61145
  7568.89      -0.612584
  7577.27      -0.625949
  7585.7      -0.641817
  7594.21      -0.649376
  7602.83      -0.652322
  7611.42      -0.659969
  7620.14      -0.665802
  7629.01      -0.666939
  7637.89      -0.67464
  7646.8      -0.684224
  7655.98      -0.689258
  7665.14      -0.691418
  7674.37      -0.691485
  7683.7      -0.692984
  7693.05      -0.698926
  7702.49      -0.706469
  7712.01      -0.714039
  7721.54      -0.722185
  7731.29      -0.727287
  7741.15      -0.732382
  7751.04      -0.737296
  7761.13      -0.742635
  7771.19      -0.749985
  7781.23      -0.756269
  7791.4      -0.761676
  7801.61      -0.766011
  7811.81      -0.769555
  7822.08      -0.773833
  7832.45      -0.778244
  7842.95      -0.783409
  7853.46      -0.78882
  7864.12      -0.79516
  7874.87      -0.801743
  7885.53      -0.807651
  7896.41      -0.813208
  7907.37      -0.819357
  7918.32      -0.824506
  7929.54      -0.830162
  7940.75      -0.834416
  7952.02      -0.839176
  7963.42      -0.844259
  7969.12      -0.846359