File: root/data/Mo_foil_111.xdi
# XDI/1.0 Athena/0.9.26
# Beamline.name: BM08-LISA
# Column.1: energy eV
# Column.2: mutrans
# Element.edge: K
# Element.symbol: Mo
# Facility.name: ESRF
# Facility.xray_source: Bending magnet
# Mono.d_spacing: 3.134692
# Mono.name: Si(111)
# Mono.notes: LNT cooled
# Sample.formula: Mo
# Sample.name: Mo metal foil
# Scan.start_time: 2018-10-22T15:07:35
# ///
# room temperature
#------------------------
#   energy  mutrans
  19802.854        1.43923
  19812.326        1.43897
  19821.685        1.4387
  19831.455        1.43849
  19841.352        1.43828
  19850.955        1.43813
  19860.888        1.43787
  19870.472        1.43786
  19880.273        1.4379
  19889.975        1.43813
  19899.517        1.43827
  19909.534        1.43877
  19919.109        1.43937
  19929.080        1.44016
  19938.830        1.4415
  19948.599        1.44343
  19958.687        1.44665
  19968.388        1.45194
  19973.936        1.45662
  19974.864        1.45781
  19975.977        1.45911
  19977.046        1.46032
  19978.172        1.46161
  19979.180        1.46302
  19980.087        1.46471
  19980.946        1.46651
  19981.963        1.46874
  19982.919        1.47082
  19983.971        1.47298
  19985.089        1.47568
  19986.124        1.47914
  19987.036        1.48272
  19987.896        1.48681
  19988.936        1.49244
  19989.910        1.49838
  19990.985        1.50564
  19992.125        1.51456
  19993.183        1.52603
  19994.122        1.54114
  19995.145        1.56561
  19996.071        1.59629
  19997.085        1.64149
  19998.200        1.70273
  19999.355        1.77427
  20000.383        1.84447
  20001.301        1.90593
  20002.324        1.97024
  20003.260        2.02617
  20004.275        2.08464
  20005.391        2.14435
  20006.520        2.20249
  20007.531        2.26073
  20008.436        2.32648
  20009.452        2.41686
  20010.383        2.50813
  20011.399        2.60079
  20012.533        2.68196
  20013.664        2.74307
  20014.653        2.78078
  20015.559        2.79747
  20016.439        2.79207
  20017.521        2.76179
  20018.559        2.72587
  20019.686        2.69651
  20020.812        2.68116
  20021.802        2.68128
  20022.709        2.6927
  20023.616        2.70955
  20024.576        2.72652
  20025.782        2.74012
  20026.927        2.74565
  20028.036        2.74591
  20029.001        2.74363
  20029.895        2.7413
  20030.798        2.7414
  20031.767        2.74537
  20032.803        2.75347
  20034.116        2.76674
  20035.187        2.78088
  20036.134        2.7942
  20037.020        2.80752
  20037.911        2.82067
  20038.850        2.83525
  20039.877        2.85034
  20041.010        2.86532
  20042.241        2.87842
  20043.180        2.88445
  20044.058        2.88261
  20044.944        2.87144
  20045.902        2.85293
  20046.930        2.8291
  20048.055        2.80408
  20049.154        2.78118
  20050.125        2.76055
  20051.149        2.74182
  20052.058        2.72981
  20053.034        2.72187
  20054.089        2.71753
  20055.255        2.71649
  20056.337        2.71804
  20057.291        2.72246
  20058.183        2.72838
  20059.084        2.73513
  20060.039        2.74228
  20061.245        2.74899
  20062.385        2.75332
  20063.445        2.75536
  20064.383        2.75539
  20065.258        2.75386
  20066.142        2.75057
  20067.070        2.74725
  20068.100        2.74272
  20069.224        2.73816
  20070.882        2.73105
  20072.656        2.72307
  20074.518        2.71864
  20076.877        2.72184
  20078.816        2.73465
  20080.750        2.75725
  20083.013        2.78227
  20085.440        2.8
  20087.367        2.80423
  20089.679        2.79183
  20092.011        2.76824
  20094.054        2.73927
  20096.413        2.71769
  20098.914        2.70877
  20101.096        2.71034
  20103.288        2.71607
  20105.986        2.72092
  20108.206        2.7236
  20110.759        2.72561
  20113.455        2.72682
  20115.796        2.73005
  20118.457        2.73693
  20121.142        2.74861
  20123.463        2.76156
  20126.380        2.77161
  20128.862        2.77422
  20131.393        2.76619
  20134.366        2.75271
  20136.984        2.73532
  20139.789        2.71626
  20142.765        2.69577
  20145.273        2.68192
  20148.428        2.67522
  20151.054        2.67256
  20154.086        2.66994
  20157.012        2.66955
  20159.765        2.67443
  20163.054        2.68377
  20165.805        2.69223
  20169.007        2.69811
  20172.058        2.7015
  20175.002        2.70023
  20178.283        2.6977
  20181.145        2.70277
  20184.526        2.72
  20187.483        2.74514
  20190.845        2.76421
  20193.925        2.77119
  20197.333        2.76388
  20200.581        2.74182
  20203.973        2.7074
  20207.313        2.67012
  20210.528        2.63492
  20214.103        2.61109
  20217.248        2.60564
  20220.920        2.61616
  20224.068        2.62958
  20227.940        2.63631
  20231.211        2.63796
  20235.005        2.64171
  20238.211        2.65098
  20242.012        2.66383
  20245.364        2.6801
  20249.231        2.69463
  20252.671        2.70546
  20256.717        2.70941
  20260.295        2.70918
  20264.262        2.70952
  20267.847        2.70979
  20271.759        2.70485
  20275.432        2.69592
  20279.591        2.68316
  20283.543        2.66587
  20287.397        2.64539
  20291.596        2.62972
  20295.372        2.61881
  20299.656        2.60888
  20303.376        2.60251
  20307.827        2.60543
  20311.740        2.61805
  20316.031        2.63062
  20320.310        2.643
  20324.265        2.65506
  20328.702        2.66491
  20332.723        2.67182
  20337.128        2.67569
  20341.411        2.67699
  20345.651        2.6738
  20350.166        2.66797
  20354.278        2.66012
  20358.787        2.65509
  20363.135        2.65333
  20367.579        2.64867
  20372.377        2.6379
  20376.598        2.62477
  20381.218        2.61817
  20385.917        2.61822
  20390.322        2.61869
  20395.245        2.61764
  20399.882        2.61461
  20404.421        2.61278
  20409.456        2.61696
  20413.885        2.62316
  20418.640        2.62646
  20423.705        2.62603
  20428.305        2.62339
  20433.146        2.62093
  20438.286        2.62152
  20442.778        2.62484
  20447.759        2.63007
  20452.976        2.63437
  20457.750        2.63279
  20462.871        2.62761
  20468.059        2.62448
  20472.941        2.62061
  20477.950        2.61394
  20483.326        2.60501
  20488.497        2.60099
  20493.380        2.60099
  20498.786        2.60235
  20504.048        2.60307
  20509.054        2.60268
  20514.395        2.60109
  20520.049        2.59871
  20525.266        2.59642
  20530.338        2.59432
  20535.908        2.59327
  20541.592        2.59512
  20546.955        2.59752
  20552.316        2.59623
  20558.069        2.59266
  20563.710        2.59201
  20569.177        2.59234
  20574.768        2.59409
  20580.576        2.59901
  20586.402        2.60417
  20591.909        2.60534
  20597.517        2.59972
  20603.287        2.59292
  20609.302        2.58374
  20615.093        2.57665
  20620.625        2.57384
  20626.333        2.57272
  20632.465        2.57135
  20638.591        2.56803
  20644.201        2.56445
  20649.922        2.56521
  20655.895        2.56829
  20662.204        2.57093
  20668.362        2.57157
  20674.411        2.57094
  20680.332        2.56966
  20686.294        2.56889
  20692.772        2.56856
  20699.099        2.56932
  20705.223        2.57025
  20711.308        2.57107
  20717.363        2.56918
  20723.729        2.56536
  20730.132        2.56226
  20736.477        2.55904
  20742.812        2.55363
  20748.924        2.55042
  20755.318        2.54852
  20761.788        2.54619
  20768.347        2.54181
  20774.952        2.53845
  20781.572        2.53713
  20788.058        2.53836
  20794.553        2.54182
  20801.066        2.54521
  20807.726        2.54671
  20814.504        2.54444
  20821.278        2.54195
  20828.046        2.54071
  20834.947        2.54077
  20841.634        2.54109
  20848.387        2.53909
  20855.039        2.53643
  20858.570        2.53578