File: root/data/MoO3_111.xdi
# XDI/1.0 Demeter/0.9.26
# Beamline.name: BM08-LISA
# Column.1: energy eV
# Column.2: mutrans
# Column.3: murefer
# Element.edge: K
# Element.symbol: Mo
# Facility.name: ESRF
# Facility.xray_source: Bending magnet
# Mono.d_spacing: 3.134692
# Mono.name: Si(111)
# Mono.notes: LNT cooled
# Sample.formula: MoO3
# Sample.name: Molybdenum trioxide
# Sample.reference: Mo metal foil
# Scan.start_time: 2018-10-22T15:07:35
# ///
# room temperature
#------------------------
#  energy  mutrans  murefer
  19802.854       0.137185        1.43923
  19816.860       0.136189        1.43875
  19831.455       0.135418        1.43849
  19846.297       0.13478        1.43815
  19860.888       0.134857        1.43787
  19875.462       0.13405        1.43796
  19889.975       0.133524        1.43813
  19904.488       0.132364        1.4385
  19919.109       0.131854        1.43937
  19933.755       0.132274        1.44084
  19948.599       0.133551        1.44343
  19963.547       0.136126        1.44898
  19973.936       0.140443        1.45662
  19975.408       0.141271        1.45831
  19977.046       0.14227        1.46032
  19978.768       0.143429        1.4624
  19980.087       0.14451        1.46471
  19981.446       0.146043        1.46757
  19982.919       0.147787        1.47082
  19984.454       0.149999        1.4741
  19986.124       0.151786        1.47914
  19987.532       0.154388        1.48498
  19988.936       0.157696        1.49244
  19990.361       0.16112        1.50131
  19992.125       0.165991        1.51456
  19993.732       0.172738        1.53409
  19995.145       0.181961        1.56561
  19996.497       0.193912        1.61366
  19998.200       0.214295        1.70273
  19999.970       0.249888        1.81539
  20001.301       0.303775        1.90593
  20002.719       0.392317        1.99399
  20004.275       0.496934        2.08464
  20006.045       0.557432        2.17772
  20007.531       0.539334        2.26073
  20008.937       0.507556        2.36904
  20010.383       0.517274        2.50813
  20011.869       0.570369        2.63807
  20013.664       0.67663        2.74307
  20015.181       0.821572        2.79305
  20016.439       0.971343        2.79207
  20017.948        1.12545        2.74698
  20019.686        1.22714        2.69651
  20021.402        1.2733        2.6793
  20022.709        1.29846        2.6927
  20024.153        1.32598        2.71949
  20025.782        1.34519        2.74012
  20027.420        1.34075        2.74618
  20029.001        1.32077        2.74363
  20030.411        1.29993        2.74123
  20031.767        1.28998        2.74537
  20033.450        1.2982        2.75952
  20035.187        1.32072        2.78088
  20036.518        1.33946        2.79992
  20037.911        1.34569        2.82067
  20039.427        1.33629        2.84402
  20041.010        1.31907        2.86532
  20042.655        1.29802        2.88204
  20044.058        1.27896        2.88261
  20045.346        1.26815        2.86414
  20046.930        1.2597        2.8291
  20048.708        1.2551        2.79043
  20050.125        1.25525        2.76055
  20051.533        1.25795        2.73619
  20053.034        1.25808        2.72187
  20054.584        1.25538        2.71649
  20056.337        1.24617        2.71804
  20057.808        1.23316        2.72561
  20059.084        1.21938        2.73513
  20060.631        1.20447        2.74586
  20062.385        1.18895        2.75332
  20063.861        1.17603        2.75545
  20065.258        1.16271        2.75386
  20066.668        1.15162        2.74872
  20068.100        1.14444        2.74272
  20069.856        1.13959        2.73559
  20072.656        1.14105        2.72307
  20075.580        1.15149        2.71874
  20078.816        1.16889        2.73465
  20081.897        1.18391        2.77093
  20085.440        1.18932        2.8
  20088.465        1.18386        2.80006
  20092.011        1.17609        2.76824
  20095.105        1.17213        2.7273
  20098.914        1.17135        2.70877
  20102.143        1.17328        2.7133
  20105.986        1.17479        2.72092
  20109.418        1.17757        2.72452
  20113.455        1.18195        2.72682
  20117.044        1.1889        2.7328
  20121.142        1.19448        2.74861
  20124.770        1.19896        2.76726
  20128.862        1.19735        2.77422
  20132.969        1.18924        2.75943
  20136.984        1.17706        2.73532
  20141.401        1.16668        2.70606
  20145.273        1.16126        2.68192
  20149.783        1.15967        2.67338
  20154.086        1.159        2.66994
  20158.400        1.15688        2.67146
  20163.054        1.15368        2.68377
  20167.376        1.15238        2.69552
  20172.058        1.1512        2.7015
  20176.777        1.1491        2.69862
  20181.145        1.14647        2.70277
  20186.074        1.14264        2.73327
  20190.845        1.13974        2.76421
  20195.568        1.13678        2.76944
  20200.581        1.13269        2.74182
  20205.725        1.13019        2.68943
  20210.528        1.13131        2.63492
  20215.611        1.13554        2.60605
  20220.920        1.14005        2.61616
  20226.125        1.13928        2.6342
  20231.211        1.13408        2.63796
  20236.520        1.12802        2.64556
  20242.012        1.12155        2.66383
  20247.367        1.11508        2.68817
  20252.671        1.11037        2.70546
  20258.393        1.11043        2.70967
  20264.262        1.11422        2.70952
  20269.931        1.11766        2.70793
  20275.432        1.11935        2.69592
  20281.338        1.12193        2.67565
  20287.397        1.12361        2.64539
  20293.581        1.12325        2.62414
  20299.656        1.12028        2.60888
  20305.613        1.11959        2.60216
  20311.740        1.11698        2.61805
  20317.921        1.10482        2.63658
  20324.265        1.10176        2.65506
  20330.658        1.10373        2.66878
  20337.128        1.10866        2.67569
  20343.724        1.11142        2.67594
  20350.166        1.10908        2.66797
  20356.648        1.10461        2.65713
  20363.135        1.09659        2.65333
  20369.784        1.09121        2.64423
  20376.598        1.08537        2.62477
  20383.367        1.08287        2.61764
  20390.322        1.08297        2.61869
  20397.383        1.08407        2.61606
  20404.421        1.08547        2.61278
  20411.537        1.08729        2.62016
  20418.640        1.08912        2.62646
  20425.835        1.09006        2.62489
  20433.146        1.0879        2.62093
  20440.502        1.08824        2.62286
  20447.759        1.08026        2.63007
  20455.241        1.07208        2.63395
  20462.871        1.07189        2.62761
  20470.396        1.07276        2.62316
  20477.950        1.07402        2.61394
  20485.616        1.07451        2.60258
  20493.380        1.07557        2.60099
  20501.269        1.07273        2.60266
  20509.054        1.06792        2.60268
  20517.099        1.06455        2.60006
  20525.266        1.06164        2.59642
  20533.416        1.0578        2.59402
  20541.592        1.05494        2.59512
  20549.885        1.05412        2.59718
  20558.069        1.05403        2.59266
  20566.264        1.05334        2.59194
  20574.768        1.05295        2.59409
  20583.298        1.05252        2.60225
  20591.909        1.05113        2.60534
  20600.686        1.04994        2.59629
  20609.302        1.04862        2.58374
  20617.884        1.046        2.57465
  20626.333        1.04258        2.57272
  20635.340        1.04127        2.57017
  20644.201        1.04054        2.56445
  20653.201        1.0395        2.56671
  20662.204        1.03725        2.57093
  20671.097        1.03533        2.5715
  20680.332        1.03247        2.56966
  20689.702        1.02978        2.56881
  20699.099        1.02692        2.56932
  20708.152        1.02445        2.57069
  20717.363        1.02286        2.56918
  20727.027        1.02201        2.56356
  20736.477        1.01967        2.55904
  20745.766        1.01747        2.55163
  20755.318        1.01573        2.54852
  20765.164        1.01481        2.54469
  20774.952        1.01204        2.53845
  20784.641        1.01103        2.53762
  20794.553        1.00849        2.54182
  20804.683        1.00756        2.5465
  20814.504        1.00602        2.54444
  20824.521        1.00396        2.54109
  20834.947        1.00194        2.54077
  20844.921       0.999764        2.54048
  20855.039       0.99819        2.53643
  20858.570       0.998162        2.53578