File: root/data/Nb_foil_311.xdi
# XDI/1.0 Demeter/0.9.26
# Beamline.name: BM08-LISA
# Column.1: energy eV
# Column.2: mutrans
# Element.edge: K
# Element.symbol: Nb
# Facility.name: ESRF
# Facility.xray_source: Bending magnet
# Mono.d_spacing: 1.637039
# Mono.name: Si(311)
# Mono.notes: LNT cooled
# Sample.formula: Nb
# Sample.name: Nb metal foil
# Scan.start_time: 2023-06-17T21:18:03
# ///
# room temperature
#------------------------
#   energy  mutrans
  18785.591       0.0793417
  18795.314       0.0784182
  18805.139       0.0778335
  18815.109       0.0768091
  18824.947       0.0762099
  18834.876       0.0753834
  18844.863       0.0748268
  18854.739       0.0742855
  18864.696       0.0738855
  18874.626       0.0732812
  18884.594       0.0726507
  18894.662       0.0730344
  18904.858       0.072518
  18914.952       0.0727062
  18925.210       0.0733146
  18935.401       0.0744724
  18945.595       0.0769973
  18955.669       0.0814172
  18956.640       0.0818441
  18957.671       0.0824863
  18958.765       0.0833261
  18959.643       0.0841683
  18960.672       0.0850372
  18961.742       0.0859653
  18962.714       0.0870703
  18963.654       0.087974
  18964.738       0.0893533
  18965.759       0.0905605
  18966.691       0.0921078
  18967.857       0.0936048
  18968.852       0.0954417
  18969.835       0.097391
  18970.902       0.0995889
  18971.961       0.10217
  18972.847       0.104697
  18973.840       0.107959
  18974.950       0.111862
  18975.838       0.115872
  18976.875       0.121293
  18977.955       0.127628
  18978.933       0.135417
  18979.888       0.14514
  18980.985       0.157285
  18982.010       0.175522
  18982.925       0.199016
  18984.062       0.23662
  18985.027       0.289953
  18985.971       0.378351
  18986.987       0.487978
  18988.004       0.584884
  18988.949       0.637688
  18989.924       0.659904
  18991.062       0.687439
  18991.972       0.727376
  18992.931       0.777545
  18994.104       0.840814
  18995.050       0.903636
  18996.042       0.972774
  18997.113        1.04674
  18998.075        1.13212
  18999.018        1.23249
  19000.029        1.31841
  19001.105        1.38908
  19001.982        1.43087
  19002.950        1.44894
  19004.088        1.44109
  19004.995        1.41174
  19006.015        1.37128
  19007.108        1.34082
  19008.061        1.32579
  19009.040        1.32638
  19010.101        1.33664
  19011.070        1.35073
  19012.011        1.36405
  19013.017        1.37232
  19014.111        1.37452
  19014.992        1.37331
  19015.958        1.37045
  19018.222        1.37216
  19020.575        1.39657
  19022.898        1.42772
  19025.240        1.45996
  19027.745        1.48579
  19030.352        1.476
  19033.070        1.42372
  19035.756        1.37787
  19038.538        1.35788
  19041.408        1.36156
  19044.397        1.37632
  19047.506        1.38286
  19050.621        1.37421
  19053.808        1.36149
  19057.012        1.35254
  19060.406        1.36176
  19063.810        1.39208
  19067.215        1.41492
  19070.738        1.40861
  19074.477        1.37493
  19078.169        1.34993
  19082.009        1.34844
  19086.007        1.35264
  19089.910        1.35253
  19093.818        1.35385
  19097.996        1.36425
  19102.314        1.37968
  19106.436        1.38696
  19110.716        1.37655
  19115.319        1.35632
  19119.671        1.33286
  19124.187        1.31897
  19129.032        1.31293
  19133.655        1.31204
  19138.590        1.32021
  19143.384        1.32743
  19148.362        1.32889
  19153.348        1.32982
  19158.406        1.34756
  19163.422        1.36776
  19168.828        1.36718
  19173.928        1.34088
  19179.384        1.30112
  19184.887        1.27077
  19190.273        1.26922
  19196.040        1.27641
  19201.701        1.27936
  19207.527        1.29148
  19213.359        1.30751
  19219.474        1.32182
  19225.577        1.32741
  19231.757        1.32806
  19237.940        1.32145
  19244.153        1.30813
  19250.557        1.28658
  19257.006        1.2703
  19263.603        1.25852
  19270.252        1.25897
  19277.053        1.27116
  19283.800        1.28225
  19290.751        1.29167
  19297.655        1.296
  19304.718        1.29476
  19311.782        1.28806
  19319.054        1.28333
  19326.257        1.27651
  19333.535        1.26508
  19340.925        1.25937
  19348.365        1.25532
  19356.005        1.25274
  19363.489        1.25523
  19371.148        1.25781
  19378.730        1.25696
  19386.720        1.25595
  19394.640        1.25768
  19402.593        1.25894
  19410.879        1.25626
  19418.851        1.25196
  19427.289        1.24522
  19435.505        1.24005
  19443.979        1.23767
  19452.522        1.23622
  19461.053        1.23445
  19469.744        1.23203
  19478.527        1.23051
  19487.348        1.23044
  19496.482        1.22825
  19505.373        1.22756
  19514.458        1.22781
  19523.728        1.22799
  19532.709        1.22454
  19542.066        1.21856
  19551.561        1.2123
  19560.728        1.20949
  19570.134        1.20666
  19579.815        1.20447
  19589.311        1.20392
  19598.849        1.20326
  19608.412        1.20155
  19618.084        1.20032
  19627.918        1.19886
  19637.780        1.19679
  19647.692        1.19308
  19657.574        1.19017
  19667.549        1.18576
  19677.655        1.18238
  19687.774        1.17923
  19697.954        1.17631
  19708.250        1.17479
  19718.575        1.17404
  19729.034        1.17247
  19739.552        1.1707
  19750.071        1.16821
  19760.629        1.16576
  19771.281        1.1627
  19781.983        1.15911
  19792.776        1.15563
  19803.626        1.15237
  19814.579        1.14931
  19825.578        1.14703
  19836.631        1.14491
  19847.702        1.13992