File: root/data/Ru_foil_311.xdi
# XDI/1.0 Demeter/0.9.26
# Beamline.name: BM08-LISA
# Column.1: energy eV
# Column.2: mutrans
# Element.edge: K
# Element.symbol: Ru
# Facility.name: ESRF
# Facility.xray_source: Bending magnet
# Mono.d_spacing: 1.637039
# Mono.name: Si(311)
# Mono.notes: LNT cooled
# Sample.formula: Ru
# Sample.name: Ru metal foil
# Scan.start_time: 2018-09-29T17:08:35
# ///
# room temperature
#------------------------
#   energy  mutrans
  21908.408      -0.0477544
  21912.927      -0.0481622
  21917.702      -0.0482551
  21922.700      -0.0479595
  21927.574      -0.0481684
  21932.623      -0.0481402
  21937.658      -0.0481404
  21942.725      -0.0467502
  21952.295      -0.0486388
  21957.380      -0.04682
  21967.007      -0.0488556
  21972.192      -0.0469454
  21981.851      -0.0484327
  21986.832      -0.0472297
  21996.537      -0.0482881
  22006.633      -0.0485765
  22021.540      -0.0470401
  22036.189      -0.0464824
  22051.239      -0.0442644
  22066.097      -0.040479
  22077.090      -0.0352493
  22080.045      -0.0323792
  22083.139      -0.0296976
  22086.007      -0.0259607
  22088.912      -0.0214116
  22092.081      -0.0142397
  22095.065      -0.00415916
  22097.958       0.0116225
  22101.071       0.042189
  22104.035       0.114498
  22106.828       0.239014
  22110.019       0.354853
  22113.082       0.429278
  22115.936       0.538715
  22119.024       0.657449
  22122.037       0.724992
  22124.885       0.733667
  22127.955       0.691829
  22131.060       0.666794
  22133.883       0.672903
  22136.564       0.678821
  22137.993       0.685337
  22139.807       0.700737
  22141.496       0.724975
  22143.099       0.751481
  22145.134       0.778571
  22146.827       0.79906
  22148.856       0.807069
  22150.672       0.796406
  22152.602       0.772437
  22154.639       0.741853
  22156.553       0.71266
  22158.788       0.693036
  22160.759       0.683964
  22163.159       0.684044
  22165.234       0.688455
  22167.708       0.693641
  22169.848       0.698117
  22172.259       0.698606
  22174.514       0.698069
  22177.068       0.699634
  22179.564       0.704845
  22182.005       0.716269
  22184.723       0.731178
  22187.182       0.745831
  22189.963       0.753997
  22192.459       0.752797
  22195.216       0.743433
  22198.083       0.730073
  22200.766       0.717634
  22203.743       0.710419
  22206.665       0.708221
  22209.454       0.708921
  22212.619       0.707546
  22215.695       0.704404
  22218.735       0.702557
  22221.981       0.703119
  22225.208       0.707785
  22228.270       0.717341
  22231.589       0.727157
  22235.075       0.734206
  22238.488       0.736156
  22241.759       0.731552
  22245.203       0.721625
  22248.698       0.708938
  22252.355       0.694159
  22255.892       0.68337
  22259.320       0.676274
  22262.862       0.67657
  22266.659       0.683926
  22270.384       0.694352
  22274.112       0.703177
  22277.822       0.710279
  22281.599       0.7146
  22285.461       0.716015
  22289.497       0.716042
  22293.618       0.715188
  22297.581       0.714859
  22301.680       0.714942
  22305.688       0.712882
  22309.912       0.706471
  22313.999       0.697903
  22318.294       0.687892
  22322.551       0.676623
  22326.968       0.667068
  22331.424       0.662572
  22335.814       0.663081
  22340.225       0.66742
  22344.794       0.673001
  22349.305       0.679019
  22353.872       0.686943
  22358.469       0.696518
  22363.202       0.703849
  22367.868       0.707438
  22372.608       0.709231
  22377.398       0.705516
  22382.269       0.698568
  22387.186       0.69167
  22392.084       0.6849
  22397.094       0.678686
  22402.057       0.673601
  22407.036       0.666885
  22412.003       0.659904
  22417.127       0.65258
  22422.222       0.65039
  22427.305       0.654969
  22432.596       0.661956
  22438.018       0.670524
  22443.274       0.678179
  22448.484       0.686154
  22453.756       0.69038
  22459.223       0.691593
  22464.690       0.690631
  22470.342       0.683696
  22475.921       0.675429
  22481.364       0.67161
  22487.183       0.670744
  22493.155       0.668953
  22498.828       0.66625
  22504.493       0.662884
  22510.503       0.656025
  22516.553       0.651699
  22522.386       0.651923
  22528.437       0.652509
  22534.667       0.654665
  22540.561       0.657635
  22546.674       0.660723
  22552.990       0.665502
  22558.992       0.670338
  22565.176       0.673887
  22571.609       0.676844
  22577.670       0.674513
  22584.134       0.666622
  22590.561       0.660301
  22596.786       0.656587
  22603.490       0.654714
  22609.940       0.651204
  22616.478       0.645298
  22623.351       0.642606
  22629.835       0.642007
  22636.784       0.644034
  22643.401       0.647407
  22650.428       0.650347
  22657.141       0.653503
  22664.244       0.654562
  22670.977       0.653736
  22678.126       0.652542
  22684.967       0.652323
  22692.154       0.65388
  22699.057       0.653964
  22706.271       0.651428
  22713.281       0.648771
  22720.458       0.645701
  22727.445       0.641963
  22734.886       0.640197
  22741.800       0.639145
  22749.315       0.637448
  22756.420       0.63611
  22763.918       0.636485
  22771.245       0.638364
  22778.688       0.64059
  22786.452       0.641021
  22793.912       0.639805
  22801.769       0.637913
  22809.608       0.637543
  22817.316       0.637433
  22825.403       0.638773
  22833.220       0.64012
  22841.090       0.638575
  22849.268       0.635758
  22857.244       0.632441
  22865.110       0.627784
  22873.207       0.625523
  22881.453       0.624689
  22889.279       0.62365
  22897.465       0.624479
  22905.771       0.625849
  22913.909       0.627907
  22922.095       0.628358
  22930.434       0.626645
  22939.006       0.625685
  22947.252       0.624842
  22955.588       0.624308
  22958.574       0.623976