File: root/data/Sn_foil_311.xdi
# XDI/1.0 Demeter/0.9.26
# Beamline.name: BM08-LISA
# Column.1: energy eV
# Column.2: mutrans
# Element.edge: K
# Element.symbol: Sn
# Facility.name: ESRF
# Facility.xray_source: Bending magnet
# Mono.d_spacing: 1.637039
# Mono.name: Si(311)
# Mono.notes: LNT cooled
# Sample.formula: Sn
# Sample.name: Sn metal foil
# Scan.start_time: 2023-09-30T20:51:25
# ///
# room temperature
#------------------------
#   energy  mutrans
  28853.817       0.0794211
  28863.083       0.0784554
  28872.721       0.0776771
  28882.999       0.0775551
  28892.961       0.0770802
  28902.600       0.0773227
  28912.752       0.0768063
  28922.653       0.0767659
  28932.303       0.076478
  28942.332       0.0753567
  28952.393       0.0748797
  28962.163       0.0748898
  28971.935       0.0750407
  28982.093       0.0753557
  28991.879       0.0756807
  29001.671       0.076402
  29011.749       0.0766023
  29021.647       0.0758649
  29031.503       0.0763648
  29041.279       0.0761366
  29051.125       0.0765238
  29061.170       0.077234
  29070.976       0.0777028
  29080.638       0.0787504
  29090.782       0.0802809
  29100.738       0.0819341
  29110.315       0.0843183
  29120.319       0.0869753
  29130.558       0.0908162
  29140.105       0.0965685
  29149.999       0.104816
  29160.254       0.118228
  29170.220       0.141014
  29180.134       0.192331
  29185.904       0.255785
  29186.936       0.275716
  29187.807       0.294988
  29188.727       0.31726
  29189.866       0.348945
  29190.898       0.38099
  29192.076       0.427473
  29193.006       0.476549
  29194.052       0.54999
  29194.904       0.628696
  29195.927       0.745017
  29196.857       0.869286
  29197.831        1.01671
  29199.034        1.22223
  29200.003        1.41346
  29201.060        1.63616
  29201.908        1.79996
  29202.901        1.93998
  29203.774        2.00469
  29204.709        2.0233
  29205.883        2.00014
  29206.916        1.95698
  29208.071        1.8948
  29208.978        1.84615
  29210.001        1.79817
  29210.854        1.76854
  29211.932        1.7374
  29212.911        1.721
  29213.964        1.71011
  29215.203        1.70001
  29216.173        1.69502
  29217.251        1.69046
  29218.124        1.6897
  29219.177        1.69237
  29220.123        1.69609
  29221.123        1.70212
  29222.362        1.70825
  29223.372        1.71238
  29224.450        1.71539
  29225.314        1.7152
  29226.309        1.71326
  29227.183        1.70886
  29228.105        1.70365
  29229.281        1.69448
  29230.311        1.68569
  29231.907        1.66836
  29234.075        1.64675
  29236.213        1.64376
  29238.933        1.66138
  29241.190        1.68588
  29243.603        1.713
  29246.579        1.7366
  29249.183        1.75467
  29251.979        1.7578
  29255.054        1.74398
  29257.812        1.71828
  29260.859        1.69409
  29263.867        1.67623
  29266.769        1.6699
  29270.302        1.67589
  29273.440        1.68922
  29276.950        1.70651
  29280.461        1.72781
  29284.175        1.74456
  29287.888        1.74432
  29291.368        1.7303
  29295.265        1.71357
  29299.017        1.70054
  29303.132        1.69515
  29306.958        1.69577
  29311.287        1.70114
  29315.386        1.7096
  29319.702        1.71753
  29323.926        1.72222
  29328.156        1.72424
  29332.698        1.72471
  29337.073        1.72106
  29341.956        1.7166
  29346.625        1.71248
  29351.413        1.70948
  29356.242        1.70927
  29361.033        1.70916
  29366.147        1.71129
  29371.296        1.71307
  29376.531        1.71388
  29382.064        1.71322
  29387.303        1.71109
  29392.479        1.70761
  29398.063        1.70245
  29403.811        1.69869
  29409.522        1.69431
  29415.315        1.69339
  29421.204        1.69291
  29427.085        1.69291
  29432.786        1.69437
  29438.795        1.69457
  29445.204        1.69264
  29451.214        1.68912
  29457.122        1.68458
  29463.400        1.67974
  29469.953        1.67439
  29476.549        1.67291
  29483.088        1.66788
  29489.616        1.66525
  29496.186        1.66421
  29502.987        1.66373
  29509.857        1.66303
  29516.740        1.66252
  29523.775        1.66102
  29530.869        1.65739
  29538.165        1.65341
  29545.311        1.65003
  29552.290        1.6466
  29559.547        1.64373
  29567.123        1.64024
  29574.657        1.638
  29582.061        1.63673
  29589.678        1.63496
  29597.454        1.63352
  29605.390        1.63127
  29613.144        1.62793
  29621.073        1.62484
  29629.137        1.62156
  29637.210        1.61839
  29645.308        1.61662
  29653.586        1.61332
  29662.015        1.61075
  29670.458        1.60836
  29678.891        1.60661
  29687.455        1.60525
  29696.190        1.60321
  29705.243        1.60159
  29714.060        1.59891
  29723.174        1.59696
  29732.466        1.59379
  29741.364        1.59165
  29750.521        1.58979
  29759.704        1.58699
  29769.262        1.58521
  29778.527        1.5826
  29788.087        1.5817
  29797.785        1.57956
  29807.200        1.57711
  29816.626        1.57516
  29826.521        1.57315
  29836.489        1.57082
  29846.336        1.5676
  29856.164        1.56503
  29866.044        1.56256
  29876.156        1.55998
  29886.392        1.55851
  29896.645        1.55623
  29906.685        1.55487
  29917.157        1.55223
  29927.816        1.55002
  29938.082        1.54814
  29948.653        1.54576
  29959.816        1.54423
  29970.284        1.54234
  29981.068        1.54018
  29992.220        1.53908
  30003.056        1.53716
  30013.807        1.53567
  30025.287        1.53335
  30036.255        1.53247
  30047.432        1.53033
  30059.181        1.52881
  30070.526        1.52643
  30082.101        1.52349
  30093.940        1.5228
  30105.388        1.52037
  30117.364        1.51815
  30129.153        1.51651
  30141.262        1.51378
  30153.007        1.51111
  30165.297        1.50922
  30177.149        1.50665
  30183.323        1.50477