File: root/data/SnI2_311_100K.xdi
# XDI/1.0 Demeter/0.9.26
# Beamline.name: BM08-LISA
# Column.1: energy eV
# Column.2: mutrans
# Column.3: murefer
# Element.edge: K
# Element.symbol: Sn
# Facility.name: ESRF
# Facility.xray_source: Bending magnet
# Mono.d_spacing: 1.637039
# Mono.name: Si(311)
# Mono.notes: LNT cooled
# Sample.formula: SnI2
# Sample.name: Tin(II) iodide, stannous iodide
# Sample.reference: Sn metal foil
# Sample.temperature: 100 K
# Scan.start_time: 2023-09-28T18:18:06
# ///
#------------------------
#  energy  mutrans  murefer
  28854.179      -0.136309       0.0682694
  28863.197      -0.136967       0.0675051
  28872.740      -0.137615       0.0671563
  28882.942      -0.138439       0.0668573
  28892.875      -0.138944       0.0666611
  28902.476      -0.139514       0.0665838
  28912.590      -0.140447       0.0660215
  28922.505      -0.140972       0.0659148
  28932.155      -0.141531       0.065653
  28942.155      -0.142398       0.0656002
  28952.225      -0.14306       0.065578
  28962.019      -0.143738       0.0651951
  28971.791      -0.144383       0.0649561
  28981.930      -0.144836       0.0651147
  28991.749      -0.145389       0.0650658
  29001.556      -0.146071       0.0655709
  29011.644      -0.146451       0.0659673
  29021.546      -0.147189       0.0663216
  29031.402      -0.147868       0.0668537
  29041.159      -0.148129       0.0678374
  29050.980      -0.148763       0.0684026
  29061.030      -0.148693       0.0693032
  29070.826      -0.149271       0.0697282
  29080.450      -0.1493       0.0701842
  29090.583      -0.149437       0.0708436
  29100.564      -0.149271       0.0725339
  29110.136      -0.148972       0.0745714
  29120.106      -0.148327       0.0777227
  29130.349      -0.147198       0.0812966
  29139.902      -0.145505       0.0861596
  29149.727      -0.142311       0.0938248
  29159.929      -0.137121       0.106149
  29169.928      -0.12803       0.127295
  29179.828      -0.108158       0.173127
  29185.593      -0.0852432   0.227311
  29186.654      -0.0781069   0.244156
  29187.530      -0.0715891   0.260648
  29188.440      -0.0636657   0.279553
  29189.569      -0.0536202   0.304892
  29190.601      -0.0430692   0.330691
  29191.803      -0.0286142   0.367428
  29192.738      -0.0140126   0.404736
  29193.770       0.00708914   0.459115
  29194.602       0.0285075   0.516471
  29195.586       0.0602668   0.600097
  29196.492       0.0946734   0.692398
  29197.436       0.137054       0.804374
  29198.639       0.200803       0.96831
  29199.633       0.268336        1.13241
  29200.714       0.36403        1.34628
  29201.591       0.45721        1.53514
  29202.585       0.568542        1.73559
  29203.442       0.650431        1.86584
  29204.358       0.709259        1.94812
  29205.508       0.74236        1.98122
  29206.546       0.746501        1.966
  29207.725       0.735959        1.91749
  29208.661       0.721907        1.867
  29209.689       0.703026        1.80939
  29210.537       0.684677        1.76854
  29211.585       0.662056        1.73252
  29212.531       0.642091        1.71056
  29213.555       0.623223        1.69487
  29214.784       0.603349        1.68087
  29215.778       0.588713        1.67372
  29216.875       0.574332        1.6678
  29217.753       0.564442        1.66507
  29218.782       0.555703        1.66437
  29219.694       0.549915        1.66648
  29220.660       0.545792        1.67067
  29221.879       0.542212        1.67763
  29222.904       0.540252        1.68326
  29224.016       0.538809        1.68862
  29224.894       0.537774        1.69202
  29225.885       0.537102        1.69365
  29226.739       0.536078        1.69308
  29227.637       0.534769        1.69111
  29228.754       0.532438        1.68644
  29229.784       0.529653        1.68044
  29231.429       0.524464        1.66618
  29233.621       0.516575        1.64195
  29235.696       0.510093        1.62675
  29238.406       0.503881        1.63119
  29240.721       0.502589        1.65193
  29243.080       0.507824        1.67786
  29246.002       0.519152        1.70282
  29248.685       0.530376        1.72484
  29251.407       0.540272        1.73761
  29254.492       0.547827        1.73184
  29257.289       0.554947        1.71054
  29260.189       0.563015        1.68469
  29263.295       0.569826        1.66305
  29266.152       0.571362        1.64927
  29269.597       0.5659        1.64858
  29272.789       0.558238        1.65842
  29276.128       0.550193        1.67299
  29279.766       0.540935        1.69358
  29283.298       0.532565        1.71478
  29287.124       0.526527        1.72336
  29290.486       0.524283        1.71544
  29294.456       0.524742        1.69907
  29298.109       0.528028        1.68413
  29302.268       0.531617        1.67516
  29305.967       0.535606        1.67299
  29310.354       0.541329        1.67646
  29314.291       0.545899        1.68315
  29318.730       0.547278        1.69173
  29322.713       0.545214        1.69814
  29327.115       0.541734        1.70119
  29331.400       0.538261        1.70089
  29335.918       0.536325        1.69959
  29340.697       0.535669        1.69469
  29345.252       0.536717        1.69085
  29350.183       0.538312        1.68722
  29354.726       0.540212        1.68549
  29359.650       0.541891        1.68442
  29364.713       0.542874        1.68496
  29369.576       0.541461        1.68606
  29374.978       0.538102        1.68758
  29380.397       0.534081        1.68899
  29385.314       0.529502        1.68699
  29390.678       0.525409        1.68431
  29396.147       0.522657        1.68014
  29401.539       0.521884        1.6761
  29407.329       0.522734        1.67112
  29413.244       0.524063        1.66821
  29418.835       0.526392        1.66696
  29424.419       0.527563        1.66635
  29430.361       0.527968        1.66682
  29436.439       0.527427        1.66788
  29442.549       0.525558        1.6674
  29448.246       0.523046        1.66527
  29454.341       0.519841        1.66211
  29460.771       0.5163        1.65777
  29467.199       0.513105        1.6528
  29473.476       0.510697        1.64921
  29479.836       0.508646        1.64471
  29486.466       0.507881        1.6422
  29493.238       0.507887        1.64011
  29500.093       0.508646        1.64015
  29506.967       0.509668        1.63975
  29513.619       0.51001        1.63965
  29520.439       0.509162        1.63769
  29527.451       0.507313        1.63604
  29534.796       0.503818        1.63204
  29542.024       0.50021        1.6285
  29549.152       0.496499        1.62361
  29556.467       0.493363        1.62012
  29564.016       0.491461        1.61685
  29571.494       0.490901        1.61397
  29578.796       0.491408        1.61282
  29586.291       0.491601        1.61189
  29593.926       0.492092        1.61041
  29601.749       0.492034        1.60956
  29609.367       0.49141        1.60811
  29617.153       0.490447        1.60587
  29625.135       0.488382        1.60238
  29633.140       0.485939        1.59917
  29641.166       0.482331        1.59672
  29649.431       0.478848        1.59398
  29657.863       0.475794        1.59004
  29666.289       0.473552        1.58815
  29674.704       0.471941        1.58583
  29683.225       0.470664        1.58452
  29691.893       0.47024        1.58332
  29700.797       0.470455        1.5815
  29709.439       0.471129        1.57996
  29718.334       0.4718        1.57723
  29727.506       0.471469        1.57541
  29736.417       0.470468        1.57325
  29745.661       0.468122        1.57022
  29754.968       0.465022        1.56833
  29764.558       0.461804        1.56607
  29773.668       0.458594        1.56357
  29782.967       0.455851        1.56223
  29792.585       0.45411        1.56041
  29802.124       0.453526        1.55893
  29811.714       0.453664        1.55728
  29821.596       0.454078        1.55515
  29831.245       0.454388        1.55293
  29840.925       0.454614        1.55121
  29850.908       0.453701        1.54961
  29861.096       0.451874        1.54638
  29871.025       0.449466        1.5447
  29880.957       0.447091        1.54235
  29891.349       0.444844        1.54014
  29901.682       0.443622        1.54269
  29912.038       0.440351        1.53596
  29922.437       0.438652        1.53435
  29932.909       0.437731        1.53228
  29943.697       0.437132        1.53084
  29954.462       0.436486        1.52842
  29964.967       0.435403        1.52676
  29976.014       0.434857        1.52523
  29986.710       0.434276        1.52402
  29997.387       0.43231        1.52128
  30008.412       0.430798        1.51933
  30019.507       0.428924        1.51784
  30030.393       0.426597        1.51602
  30041.814       0.424429        1.51396
  30053.089       0.422102        1.51214
  30064.568       0.420399        1.50984
  30076.103       0.419378        1.50827
  30087.693       0.418538        1.50758
  30099.469       0.417828        1.50508
  30111.087       0.417477        1.50452
  30123.255       0.416205        1.50133
  30135.110       0.414942        1.50004
  30146.876       0.413372        1.49781
  30159.171       0.411382        1.49585
  30170.857       0.409568        1.49384
  30177.107       0.408479        1.49285