File: root/data/SnI2_311.xdi
# XDI/1.0 Demeter/0.9.26
# Beamline.name: BM08-LISA
# Column.1: energy eV
# Column.2: mutrans
# Column.3: murefer
# Element.edge: K
# Element.symbol: Sn
# Facility.name: ESRF
# Facility.xray_source: Bending magnet
# Mono.d_spacing: 1.637039
# Mono.name: Si(311)
# Mono.notes: LNT cooled
# Sample.formula: SnI2
# Sample.name: Tin(II) iodide, stannous iodide
# Sample.reference: Sn metal foil
# Scan.start_time: 2023-09-30T18:16:17
# ///
# room temperature
#------------------------
#  energy  mutrans  murefer
  28853.941      -0.0434942   0.078829
  28863.221      -0.0449018   0.078579
  28872.864      -0.0455506   0.0783816
  28883.152      -0.0461389   0.0783226
  28893.095      -0.0462905   0.0779144
  28902.743      -0.0462956   0.0778449
  28912.924      -0.0477168   0.0773044
  28922.806      -0.0479536   0.077114
  28932.446      -0.0484049   0.0768393
  28942.500      -0.0490242   0.076481
  28952.560      -0.0495759   0.0760638
  28962.321      -0.0500003   0.0759332
  28972.094      -0.050763   0.075985
  28982.256      -0.0511768   0.0756546
  28992.023      -0.0514043   0.075587
  29001.796      -0.0520747   0.0760659
  29011.918      -0.0548278   0.0763083
  29021.815      -0.0526692   0.076611
  29031.652      -0.0543074   0.0773427
  29041.433      -0.0544237   0.0775996
  29051.298      -0.0547638   0.0781302
  29061.329      -0.0554629   0.0788771
  29071.145      -0.0545941   0.0790371
  29080.841      -0.0543541   0.0801125
  29090.975      -0.0540737   0.0811917
  29100.903      -0.0534974   0.0828649
  29110.499      -0.0533067   0.0847787
  29120.517      -0.0519449   0.0879497
  29130.737      -0.0499871   0.0919153
  29140.275      -0.0473209   0.097622
  29150.169      -0.0416738   0.105378
  29160.395      -0.0340385   0.118437
  29170.346      -0.0205218   0.141392
  29180.246       0.00996874   0.191444
  29185.992       0.0457384   0.252644
  29187.024       0.05719   0.271429
  29187.904       0.0674586   0.290059
  29188.829       0.0787961   0.311452
  29189.973       0.0951118   0.340937
  29191.005       0.111707       0.371079
  29192.207       0.135863       0.416061
  29193.127       0.160868       0.462835
  29194.150       0.195733       0.530204
  29194.977       0.231994       0.601523
  29195.990       0.285237       0.707052
  29196.925       0.342674       0.823046
  29197.928       0.412649       0.96462
  29199.156       0.512958        1.16827
  29200.130       0.608373        1.35732
  29201.172       0.725313        1.58724
  29202.020       0.820533        1.76827
  29203.018       0.91224        1.93263
  29203.900       0.963493        2.01509
  29204.841       0.989057        2.04746
  29206.020       0.993203        2.03128
  29207.048       0.984512        1.98839
  29208.188       0.967621        1.92429
  29209.090       0.950645        1.87118
  29210.104       0.928836        1.82085
  29210.961       0.909169        1.78742
  29212.044       0.886319        1.75997
  29213.033       0.867896        1.74324
  29214.086       0.851843        1.73099
  29215.305       0.835758        1.72135
  29216.271       0.825262        1.71639
  29217.339       0.815666        1.7118
  29218.216       0.808607        1.71094
  29219.270       0.803399        1.71316
  29220.221       0.800497        1.7173
  29221.231       0.798801        1.72326
  29222.465       0.797827        1.72942
  29223.470       0.797229        1.73381
  29224.548       0.797252        1.73893
  29225.407       0.796488        1.74015
  29226.402       0.794572        1.73916
  29227.276       0.793045        1.736
  29228.213       0.790719        1.73276
  29229.389       0.786757        1.725
  29230.423       0.782621        1.71724
  29232.010       0.775135        1.70024
  29234.173       0.765293        1.67611
  29236.321       0.760198        1.66802
  29239.031       0.760361        1.68034
  29241.268       0.76534        1.70542
  29243.686       0.7747        1.73211
  29246.652       0.785637        1.75622
  29249.247       0.796762        1.77673
  29252.062       0.806679        1.78539
  29255.128       0.812411        1.77292
  29257.890       0.814416        1.74805
  29260.932       0.814287        1.72214
  29263.946       0.813326        1.70125
  29266.852       0.810624        1.69145
  29270.375       0.806837        1.69536
  29273.494       0.803069        1.7073
  29277.004       0.799433        1.72382
  29280.506       0.796264        1.74545
  29284.219       0.794048        1.7662
  29287.928       0.790547        1.76834
  29291.417       0.788462        1.75672
  29295.310       0.786808        1.73922
  29299.056       0.787814        1.72581
  29303.156       0.788064        1.7185
  29306.983       0.790142        1.71833
  29311.311       0.79295        1.72279
  29315.415       0.795761        1.73072
  29319.727       0.797117        1.73929
  29323.961       0.798121        1.74476
  29328.191       0.796892        1.74601
  29332.732       0.795168        1.74724
  29337.098       0.793955        1.74471
  29341.976       0.793279        1.73942
  29346.650       0.793046        1.73475
  29351.433       0.792958        1.73284
  29356.281       0.793533        1.73168
  29361.068       0.79359        1.73078
  29366.166       0.794554        1.73298
  29371.306       0.792118        1.73412
  29376.506       0.789454        1.73499
  29382.039       0.786481        1.73454
  29387.258       0.783546        1.73327
  29392.425       0.781249        1.72954
  29397.994       0.779592        1.72412
  29403.712       0.778306        1.72015
  29409.409       0.777795        1.71576
  29415.221       0.777153        1.71448
  29421.100       0.777826        1.71306
  29426.927       0.778253        1.71259
  29432.642       0.778202        1.71322
  29438.701       0.777466        1.71391
  29445.100       0.776119        1.71254
  29451.085       0.774269        1.70869
  29456.983       0.771835        1.70496
  29463.266       0.768633        1.69978
  29469.824       0.766121        1.69552
  29476.415       0.763525        1.69223
  29482.934       0.762472        1.68773
  29489.427       0.760489        1.68519
  29496.032       0.76052        1.68395
  29502.833       0.760108        1.68321
  29509.812       0.76029        1.68235
  29516.700       0.759313        1.6816
  29523.701       0.757805        1.67953
  29530.764       0.756236        1.67623
  29538.056       0.753175        1.67234
  29545.176       0.750433        1.66814
  29552.135       0.747464        1.66369
  29559.378       0.745133        1.65961
  29566.938       0.743465        1.65679
  29574.467       0.74297        1.65495
  29581.871       0.742779        1.65362
  29589.478       0.742385        1.65235
  29597.244       0.741874        1.65062
  29605.179       0.74089        1.64897
  29612.939       0.739264        1.64702
  29620.838       0.737941        1.6436
  29628.886       0.735823        1.64152
  29636.959       0.733401        1.63717
  29645.047       0.730002        1.63541
  29653.315       0.727268        1.63189
  29661.723       0.725252        1.62804
  29670.166       0.723622        1.6266
  29678.594       0.722186        1.62432
  29687.148       0.720644        1.62298
  29695.878       0.719974        1.62149
  29704.931       0.722763        1.6209
  29713.717       0.71911        1.61731
  29722.836       0.718119        1.61535
  29732.158       0.717319        1.61318
  29741.066       0.715365        1.61115
  29750.192       0.712763        1.60815
  29759.360       0.710668        1.6055
  29768.887       0.70796        1.60273
  29778.122       0.705811        1.60107
  29787.691       0.704608        1.59932
  29797.445       0.70287        1.59748
  29806.860       0.702292        1.59561
  29816.245       0.701765        1.59381
  29826.079       0.700959        1.59185
  29836.021       0.699973        1.58916
  29845.949       0.700162        1.58666
  29855.818       0.697653        1.5835
  29865.677       0.695583        1.58142
  29875.702       0.693437        1.57873
  29885.948       0.69121        1.57691
  29896.231       0.688933        1.57456
  29906.210       0.68801        1.573
  29916.600       0.68615        1.57107
  29927.345       0.684688        1.5689
  29937.631       0.683158        1.56679
  29948.130       0.682055        1.56501
  29959.283       0.681258        1.56299
  29969.817       0.67929        1.56195
  29980.529       0.67803        1.55973
  29991.659       0.676553        1.55716
  30002.577       0.675215        1.5548
  30013.271       0.673054        1.55362
  30024.741       0.671527        1.55128
  30035.780       0.669335        1.54858
  30046.875       0.667908        1.54657
  30058.665       0.665535        1.54513
  30070.040       0.665382        1.54357
  30081.501       0.662344        1.54047
  30093.474       0.661253        1.53896
  30104.870       0.659539        1.53629
  30116.861       0.658444        1.5332
  30128.665       0.657036        1.53181
  30140.712       0.655291        1.53012
  30152.539       0.653191        1.52745
  30164.719       0.651471        1.52462
  30176.712       0.649984        1.52205
  30182.839       0.649157        1.52126