File: root/data/SnO_311.xdi
# XDI/1.0 Demeter/0.9.26
# Beamline.name: BM08-LISA
# Column.1: energy eV
# Column.2: mutrans
# Column.3: murefer
# Element.edge: K
# Element.symbol: Sn
# Facility.name: ESRF
# Facility.xray_source: Bending magnet
# Mono.d_spacing: 1.637039
# Mono.name: Si(311)
# Mono.notes: LNT cooled
# Sample.formula: SnO
# Sample.name: Tin(II) oxide, Stannous oxide
# Sample.reference: Sn metal foil
# Scan.start_time: 2023-10-01T16:47:45
# ///
# room temperature
#------------------------
#  energy  mutrans  murefer
  28853.846      -0.514601       0.0661779
  28863.140      -0.515134       0.0661036
  28872.783      -0.515389       0.0657214
  28883.071      -0.515554       0.0653155
  28893.023      -0.515807       0.0651837
  28902.672      -0.515797       0.0651
  28912.843      -0.516368       0.0647465
  28922.730      -0.516809       0.0646124
  28932.375      -0.51695       0.0639826
  28942.423      -0.517153       0.0635012
  28952.484      -0.517125       0.0632203
  28962.249      -0.51731       0.0631267
  28972.026      -0.517557       0.0629529
  28982.180      -0.517709       0.0632148
  28991.951      -0.517802       0.0626995
  29001.744      -0.518191       0.0628122
  29011.846      -0.519772       0.0632518
  29021.743      -0.51838       0.0633973
  29031.594      -0.519175       0.0640226
  29041.371      -0.519033       0.0642923
  29051.240      -0.518992       0.0648224
  29061.271      -0.519134       0.0656022
  29071.072      -0.518872       0.065963
  29080.716      -0.518396       0.0668062
  29090.898      -0.518009       0.068095
  29100.840      -0.517618       0.0696992
  29110.436      -0.516944       0.0720557
  29120.459      -0.516353       0.074792
  29130.689      -0.514666       0.0786288
  29140.231      -0.512418       0.0842379
  29150.145      -0.508522       0.0922343
  29160.395      -0.502735       0.10493
  29170.356      -0.493077       0.127145
  29180.275      -0.472061       0.175762
  29186.021      -0.447759       0.234859
  29187.048      -0.440461       0.253136
  29187.929      -0.433303       0.271124
  29188.849      -0.425739       0.291699
  29190.002      -0.415012       0.319675
  29191.039      -0.404069       0.348846
  29192.231      -0.388403       0.39158
  29193.142      -0.37294       0.435097
  29194.159      -0.35066       0.499151
  29194.987      -0.328173       0.565869
  29195.995      -0.295766       0.665386
  29196.930      -0.260711       0.774494
  29197.914      -0.219375       0.905963
  29199.131      -0.159213        1.0957
  29200.105      -0.100252        1.27862
  29201.153      -0.0253662    1.49985
  29202.010       0.0388628    1.6758
  29203.014       0.103032        1.83647
  29203.890       0.142414        1.92212
  29204.836       0.165565        1.95989
  29206.020       0.174756        1.95124
  29207.053       0.171454        1.91435
  29208.193       0.154712        1.85504
  29209.100       0.13496        1.80439
  29210.113       0.107912        1.75291
  29210.971       0.0865429    1.72082
  29212.058       0.0663149    1.6928
  29213.048       0.0529644    1.67642
  29214.106       0.0436868    1.66527
  29215.325       0.0368273    1.65625
  29216.285       0.0309666    1.65144
  29217.353       0.0240057    1.64789
  29218.231       0.0160859    1.64665
  29219.280       0.00651869    1.64902
  29220.226      -0.0030669    1.6498
  29221.231      -0.012649    1.6551
  29222.465      -0.0228925    1.66119
  29223.465      -0.0301983    1.66611
  29224.538      -0.0380708    1.66985
  29225.397      -0.0418241    1.67144
  29226.383      -0.0455455    1.67117
  29227.256      -0.0470273    1.66867
  29228.188      -0.0479613    1.66534
  29229.355      -0.0449108    1.65867
  29230.384      -0.0418496    1.65132
  29231.971      -0.0336753    1.63637
  29234.133      -0.016577    1.61455
  29236.277      -0.00148144    1.6071
  29238.992       0.00786832    1.61986
  29241.239       0.00780726    1.64369
  29243.657       0.0050783    1.66807
  29246.618       0.00547193    1.69067
  29249.218       0.0147271    1.7097
  29252.023       0.0292608    1.71686
  29255.093       0.040156    1.70534
  29257.851       0.0414973    1.68137
  29260.883       0.0344871    1.65511
  29263.892       0.0226772    1.63496
  29266.803       0.0121592    1.62521
  29270.322       0.00140377    1.62828
  29273.454      -0.00637906    1.63948
  29276.955      -0.0120048    1.65591
  29280.471      -0.0110991    1.67781
  29284.179      -0.0055034    1.69802
  29287.893      -0.00131632    1.70196
  29291.373       0.00238074    1.69044
  29295.265       0.00469734    1.67376
  29299.012       0.0065728    1.6606
  29303.122       0.00638616    1.6532
  29306.944       0.00559394    1.65316
  29311.277       0.00823906    1.65694
  29315.371       0.0119938    1.66509
  29319.673       0.0153615    1.67321
  29323.892       0.0164924    1.67816
  29328.127       0.0152826    1.67977
  29332.668       0.0125324    1.6801
  29337.039       0.00900422    1.67714
  29341.917       0.00644288    1.67252
  29346.581       0.00364497    1.6682
  29351.369       0.0016927    1.66585
  29356.193       0.00137573    1.66451
  29360.989       0.00152995    1.66438
  29366.097       0.00174139    1.66604
  29371.217       0.00205369    1.66748
  29376.442       0.00218539    1.66853
  29381.970       0.00296204    1.66966
  29387.184       0.00246041    1.66762
  29392.361       0.00233108    1.66407
  29397.944       0.00232317    1.6599
  29403.663       0.00189133    1.65509
  29409.359       0.00279251    1.65181
  29415.167       0.00205213    1.64974
  29421.041       0.00244649    1.64867
  29426.862       0.00137052    1.64801
  29432.593       0.000118305    1.64895
  29438.652      -0.00222592    1.64903
  29445.050      -0.00324379    1.64841
  29451.030      -0.00429054    1.64553
  29456.939      -0.00588247    1.64123
  29463.236      -0.00690199    1.63702
  29469.809      -0.00701882    1.63274
  29476.395      -0.00645398    1.62939
  29482.910      -0.00649291    1.62521
  29489.407      -0.00597477    1.62298
  29496.012      -0.00632856    1.62178
  29502.823      -0.00737484    1.62152
  29509.792      -0.00846574    1.62058
  29516.680      -0.00945628    1.62004
  29523.696      -0.0107404    1.6182
  29530.769      -0.011075    1.61503
  29538.051      -0.011761    1.61121
  29545.166      -0.0124517    1.60751
  29552.140      -0.0117928    1.60411
  29559.383      -0.0121936    1.60025
  29566.953      -0.013431    1.59745
  29574.467      -0.0152797    1.59553
  29581.851      -0.0166551    1.59432
  29589.463      -0.0177874    1.59313
  29597.229      -0.0189771    1.59085
  29605.139      -0.0199904    1.58936
  29612.884      -0.0197104    1.58787
  29620.793      -0.0196092    1.58524
  29628.856      -0.0193397    1.58235
  29636.919      -0.0198891    1.57916
  29645.007      -0.0211231    1.57666
  29653.275      -0.0220994    1.57315
  29661.678      -0.0235751    1.57036
  29670.091      -0.0247337    1.56841
  29678.509      -0.0256747    1.56659
  29687.057      -0.0267403    1.56551
  29695.782      -0.02691    1.56314
  29704.800      -0.0262743    1.56202
  29713.586      -0.0272414    1.55946
  29722.710      -0.0277153    1.55678
  29732.032      -0.0298491    1.55505
  29740.940      -0.030317    1.55273
  29750.081      -0.0316902    1.55011
  29759.233      -0.0322946    1.54838
  29768.735      -0.0324647    1.54595
  29777.964      -0.0336871    1.54401
  29787.549      -0.0329788    1.54264
  29797.303      -0.0336744    1.54102
  29806.723      -0.0339519    1.53932
  29816.108      -0.0348418    1.53724
  29825.937      -0.0357534    1.5359
  29835.863      -0.0367684    1.53371
  29845.771      -0.0376117    1.53087
  29855.624      -0.0383075    1.52843
  29865.448      -0.0390414    1.5266
  29875.478      -0.0396837    1.52434
  29885.754      -0.0405942    1.52247
  29896.042      -0.0407071    1.52042
  29906.041      -0.0411073    1.51904
  29916.416      -0.0422599    1.51656
  29927.160      -0.0429784    1.51511
  29937.462      -0.0437045    1.51303
  29947.940      -0.0447284    1.51144
  29959.103      -0.0453998    1.50942
  29969.684      -0.0462803    1.50817
  29980.390      -0.0472776    1.50623
  29991.474      -0.0474887    1.50435
  30002.423      -0.0480501    1.50256
  30013.132      -0.0486842    1.5005
  30024.576      -0.049535    1.49819
  30035.657      -0.0502393    1.49645
  30046.741      -0.051516    1.49432
  30058.515      -0.0524391    1.49258
  30069.911      -0.0524069    1.49092
  30081.367      -0.0536848    1.48828
  30093.355      -0.0545368    1.48611
  30104.736      -0.0550219    1.48448
  30116.742      -0.0559783    1.48214
  30128.546      -0.0562286    1.48042
  30140.587      -0.0578246    1.47779
  30152.430      -0.0585116    1.47599
  30164.605      -0.0592016    1.47408
  30176.566      -0.0598072    1.47252
  30182.704      -0.059975    1.47099