File: root/data/SnO_111.xdi
# XDI/1.0 Demeter/0.9.26
# Beamline.name: BM08-LISA
# Column.1: energy eV
# Column.2: mutrans
# Column.3: murefer
# Element.edge: K
# Element.symbol: Sn
# Facility.name: ESRF
# Facility.xray_source: Bending magnet
# Mono.d_spacing: 3.134692
# Mono.name: Si(111)
# Mono.notes: LNT cooled
# Sample.formula: SnO
# Sample.name: Tin(II) oxide, Stannous oxide
# Sample.reference: Sn metal foil
# Scan.start_time: 2023-09-22T10:37:03
# ///
# room temperature
#------------------------
#  energy  mutrans  murefer
  28998.931       0.406419       0.151668
  29006.930       0.406622       0.151552
  29016.694       0.406528       0.151813
  29026.520       0.406388       0.15227
  29036.140       0.406471       0.152705
  29046.555       0.406646       0.153074
  29056.420       0.40683       0.153748
  29065.938       0.40698       0.154683
  29076.123       0.407431       0.155566
  29085.869       0.407795       0.156883
  29095.602       0.40841       0.158969
  29106.135       0.409326       0.161226
  29116.134       0.410421       0.164208
  29125.757       0.412152       0.168157
  29136.050       0.414526       0.173845
  29145.948       0.41774       0.181688
  29155.806       0.423572       0.194733
  29166.045       0.433651       0.216788
  29176.469       0.455924       0.266387
  29181.595       0.481029       0.323422
  29182.439       0.48759       0.338145
  29183.498       0.496696       0.358926
  29184.342       0.504775       0.377943
  29185.260       0.514947       0.401564
  29186.442       0.529491       0.435623
  29187.398       0.543641       0.468768
  29188.673       0.565101       0.51981
  29189.658       0.585165       0.567344
  29190.662       0.610911       0.628909
  29191.871       0.649447       0.719693
  29192.781       0.688437       0.809331
  29193.691       0.73831       0.920698
  29194.779       0.810595        1.07494
  29195.624       0.879721        1.21557
  29196.449       0.959824        1.37267
  29197.519        1.06226        1.56488
  29198.335        1.13748        1.70027
  29199.208        1.20617        1.81561
  29200.353        1.26579        1.90179
  29201.282        1.29265        1.926
  29202.258        1.30012        1.91797
  29203.535        1.28826        1.88149
  29204.539        1.26651        1.84439
  29205.553        1.23812        1.80674
  29206.849        1.20087        1.76838
  29207.759        1.17414        1.74573
  29208.670        1.15085        1.72837
  29209.806        1.12829        1.71473
  29210.670        1.11474        1.70656
  29211.544        1.10208        1.70163
  29212.633        1.08863        1.69832
  29213.526        1.077        1.69672
  29214.437        1.06428        1.6965
  29215.630        1.04807        1.69877
  29216.588        1.03446        1.70139
  29217.603        1.0221        1.70524
  29218.947        1.00783        1.7096
  29219.971       0.99833        1.7122
  29221.005       0.991086        1.71375
  29222.264       0.984809        1.7137
  29223.194       0.982219        1.71197
  29224.116       0.981308        1.70808
  29225.234       0.984072        1.70203
  29226.090       0.988316        1.69526
  29227.481       0.998761        1.68327
  29229.776        1.02187        1.66559
  29231.957        1.04133        1.65979
  29234.591        1.05473        1.6702
  29237.141        1.05884        1.68979
  29239.766        1.05632        1.71375
  29241.883        1.05802        1.73201
  29244.359        1.06844        1.74856
  29247.371        1.08878        1.7539
  29250.253        1.10543        1.74556
  29253.342        1.11271        1.72403
  29256.092        1.105        1.70057
  29258.806        1.08909        1.68223
  29261.765        1.07219        1.67404
  29265.365        1.05656        1.67696
  29268.759        1.04253        1.68754
  29271.824        1.03418        1.70125
  29274.927        1.033        1.71735
  29278.814        1.03908        1.73475
  29282.664        1.04597        1.74121
  29286.156        1.05163        1.7343
  29289.508        1.05533        1.7198
  29293.569        1.05845        1.70585
  29297.754        1.05926        1.69803
  29301.420        1.05909        1.69664
  29305.276        1.06103        1.70046
  29309.313        1.06603        1.70673
  29313.719        1.07176        1.71411
  29317.588        1.07526        1.72001
  29321.874        1.07462        1.72337
  29326.417        1.07209        1.72278
  29330.896        1.06866        1.72048
  29335.091        1.06449        1.71683
  29340.188        1.06011        1.71229
  29344.888        1.05695        1.70938
  29349.353        1.05385        1.70803
  29354.256        1.05452        1.70793
  29359.596        1.056        1.70861
  29364.227        1.05665        1.70955
  29368.982        1.0571        1.71031
  29374.632        1.0567        1.71173
  29379.306        1.05703        1.71059
  29384.427        1.05718        1.70821
  29390.112        1.05758        1.7046
  29395.152        1.05727        1.70107
  29401.211        1.05671        1.69725
  29406.778        1.05744        1.69473
  29412.148        1.05759        1.69305
  29418.300        1.05674        1.69256
  29423.940        1.05446        1.69282
  29429.392        1.05313        1.69258
  29435.656        1.05177        1.69253
  29441.151        1.04958        1.69095
  29447.420        1.04683        1.68817
  29453.692        1.04443        1.68448
  29459.872        1.04347        1.68094
  29466.656        1.04323        1.67708
  29472.525        1.04369        1.67403
  29479.191        1.04312        1.67165
  29485.428        1.0444        1.66995
  29491.985        1.04414        1.66889
  29498.631        1.0438        1.66819
  29505.174        1.04109        1.66787
  29512.563        1.0401        1.66644
  29518.854        1.03849        1.66409
  29526.759        1.03761        1.66157
  29533.305        1.03643        1.65867
  29540.920        1.03558        1.65531
  29547.684        1.03694        1.65197
  29555.095        1.03638        1.64885
  29562.048        1.03496        1.6468
  29569.784        1.03289        1.64451
  29577.043        1.03033        1.64304
  29584.815        1.02797        1.6418
  29592.708        1.02681        1.64046
  29600.421        1.02526        1.63906
  29608.100        1.02598        1.63687
  29616.005        1.02657        1.63508
  29623.673        1.02647        1.63234
  29632.108        1.02604        1.63028
  29639.910        1.02555        1.62657
  29648.693        1.02312        1.62445
  29656.910        1.02176        1.62152
  29665.558        1.01999        1.61995
  29673.571        1.01923        1.61833
  29682.296        1.01811        1.61655
  29690.881        1.01768        1.61528
  29699.831        1.01683        1.61332
  29708.659        1.01674        1.61148
  29717.561        1.01651        1.60937
  29726.838        1.01548        1.60703
  29735.195        1.01309        1.60522
  29744.824        1.01239        1.60313
  29753.514        1.01136        1.60096
  29763.105        1.01038        1.59928
  29773.240        1.01008        1.59752
  29782.190        1.00918        1.59563
  29791.888        1.00934        1.59409
  29801.182        1.00917        1.59281
  29810.727        1.00799        1.59143
  29821.187        1.00689        1.58907
  29830.647        1.00591        1.58706
  29841.053        1.00436        1.58506
  29851.133        1.00224        1.58308
  29860.562        1.00233        1.5811
  29870.881        1.00187        1.57906
  29881.207        1.00155        1.57692
  29891.383        1.00037        1.5757
  29902.295       0.999864        1.5738
  29912.574       0.99837        1.57198
  29922.476       0.997694        1.57021
  29933.469       0.995875        1.56849
  29944.134       0.995599        1.56702
  29954.788       0.993196        1.5644
  29966.082       0.993506        1.56259
  29977.236       0.993454        1.56088
  29987.765       0.992323        1.55944
  29999.034       0.989609        1.55792
  30010.421       0.991079        1.55598
  30021.380       0.988721        1.5543
  30032.793       0.987199        1.55258
  30044.404       0.988001        1.55075
  30055.587       0.986122        1.54913
  30066.579       0.986143        1.54735
  30078.705       0.985424        1.54532
  30090.630       0.984675        1.54345
  30102.207       0.983632        1.54162
  30113.582       0.98291        1.53948
  30125.886       0.981985        1.53779
  30138.049       0.980874        1.53595
  30150.262       0.979724        1.53392
  30162.205       0.978923        1.53175
  30168.676       0.977092        1.53081