File: root/data/SnS_111.xdi
# XDI/1.0 Demeter/0.9.26
# Beamline.name: BM08-LISA
# Column.1: energy eV
# Column.2: mutrans
# Column.3: murefer
# Element.edge: K
# Element.symbol: Sn
# Facility.name: ESRF
# Facility.xray_source: Bending magnet
# Mono.d_spacing: 3.134692
# Mono.name: Si(111)
# Mono.notes: LNT cooled
# Sample.formula: SnS
# Sample.name: Tin(II) sulfide
# Sample.reference: Sn metal foil
# Scan.start_time: 2023-09-22T12:30:43
# ///
# room temperature
#------------------------
#  energy  mutrans  murefer
  29000.717       0.414849       0.151685
  29008.875       0.414648       0.151893
  29018.353       0.414764       0.152049
  29028.393       0.414663       0.152725
  29037.977       0.414697       0.15304
  29048.115       0.414851       0.153698
  29058.120       0.41487       0.15433
  29067.575       0.414741       0.155282
  29077.547       0.415382       0.156395
  29087.499       0.41551       0.157666
  29097.186       0.416649       0.159687
  29107.506       0.416885       0.162116
  29117.692       0.418552       0.16546
  29127.251       0.420234       0.169339
  29137.320       0.422877       0.175176
  29147.434       0.426494       0.183578
  29157.275       0.433194       0.197737
  29167.337       0.4445       0.222534
  29177.847       0.471882       0.279026
  29182.814       0.505464       0.346321
  29183.695       0.513997       0.364714
  29184.801       0.52702       0.390149
  29185.692       0.538932       0.414602
  29186.639       0.553779       0.443925
  29187.886       0.575467       0.487275
  29188.898       0.597382       0.530808
  29190.155       0.630381       0.596076
  29191.112       0.662794       0.659238
  29192.068       0.705102       0.739384
  29193.231       0.768001       0.856637
  29194.094       0.829151       0.969437
  29194.948       0.902424        1.10256
  29196.018        1.00036        1.28521
  29196.843        1.07988        1.44123
  29197.669        1.15229        1.59951
  29198.767        1.22019        1.7688
  29199.640        1.24727        1.86411
  29200.550        1.25239        1.91773
  29201.779        1.23261        1.92779
  29202.755        1.20948        1.90781
  29203.779        1.18186        1.87383
  29205.083        1.14977        1.82741
  29206.060        1.12658        1.79335
  29207.046        1.11043        1.76378
  29208.229        1.09461        1.73768
  29209.121        1.08649        1.72321
  29210.013        1.07994        1.71248
  29211.084        1.0739        1.70483
  29211.929        1.06942        1.70054
  29212.812        1.0659        1.698
  29213.911        1.06358        1.69708
  29214.822        1.06061        1.69771
  29215.780        1.05795        1.69966
  29217.020        1.05588        1.70338
  29218.044        1.05239        1.70735
  29219.078        1.05319        1.71096
  29220.403        1.05152        1.71427
  29221.390        1.05036        1.71538
  29222.367        1.05043        1.71503
  29223.552        1.04885        1.71229
  29224.445        1.04856        1.70839
  29225.310        1.04674        1.70267
  29226.400        1.04489        1.69418
  29227.237        1.04455        1.68641
  29228.628        1.04301        1.67409
  29231.026        1.04356        1.66148
  29233.312        1.04907        1.66397
  29235.965        1.05889        1.68019
  29238.392        1.06941        1.70198
  29240.886        1.07798        1.72522
  29243.032        1.0808        1.74171
  29245.583        1.08231        1.75405
  29248.737        1.08065        1.75215
  29251.580        1.08023        1.73784
  29254.519        1.0807        1.71472
  29257.204        1.07635        1.6926
  29259.993        1.07035        1.67791
  29263.065        1.06526        1.67432
  29266.666        1.05942        1.68058
  29269.910        1.0535        1.69288
  29272.937        1.05058        1.70788
  29276.134        1.04957        1.72434
  29280.059        1.05308        1.73866
  29283.834        1.05931        1.74105
  29287.233        1.07043        1.73048
  29290.660        1.07892        1.71591
  29294.872        1.08497        1.70367
  29298.897        1.08489        1.69813
  29302.488        1.08147        1.69804
  29306.448        1.07496        1.70259
  29310.608        1.0702        1.70902
  29314.845        1.06539        1.71697
  29318.667        1.0633        1.72167
  29323.133        1.06237        1.72397
  29327.686        1.06219        1.72295
  29331.994        1.06271        1.71971
  29336.285        1.06423        1.71616
  29341.495        1.06669        1.71262
  29346.016        1.06931        1.71018
  29350.500        1.07036        1.70865
  29355.583        1.06999        1.70888
  29360.725        1.07168        1.70941
  29365.366        1.06979        1.71059
  29370.302        1.07075        1.71175
  29375.801        1.06842        1.71198
  29380.484        1.06635        1.71111
  29385.825        1.06406        1.70847
  29391.319        1.06197        1.70477
  29396.407        1.06049        1.70067
  29402.610        1.05898        1.69733
  29407.978        1.05937        1.69498
  29413.490        1.05897        1.69356
  29419.614        1.05939        1.69278
  29425.150        1.05961        1.69325
  29430.898        1.05942        1.69351
  29436.992        1.05955        1.69319
  29442.553        1.05889        1.69093
  29448.995        1.05871        1.68841
  29455.048        1.05685        1.68493
  29461.525        1.0555        1.6808
  29468.051        1.05144        1.67691
  29474.017        1.05124        1.6738
  29480.740        1.05048        1.67183
  29486.835        1.04835        1.67031
  29493.641        1.04886        1.6693
  29500.010        1.04732        1.66871
  29506.841        1.04614        1.668
  29514.002        1.04578        1.66638
  29520.398        1.04594        1.66462
  29528.189        1.04551        1.66171
  29534.755        1.04386        1.65868
  29542.409        1.04274        1.65501
  29549.068        1.04156        1.65219
  29556.634        1.0406        1.64926
  29563.414        1.03921        1.6468
  29571.363        1.03848        1.64486
  29578.343        1.03709        1.6436
  29586.367        1.03521        1.64245
  29593.990        1.03371        1.64092
  29601.926        1.0338        1.63939
  29609.384        1.03324        1.63682
  29617.502        1.03303        1.63486
  29624.977        1.03176        1.6324
  29633.596        1.0301        1.63
  29641.186        1.03009        1.62739
  29650.047        1.02929        1.62461
  29658.188        1.02806        1.62235
  29666.817        1.02699        1.62055
  29674.908        1.0263        1.61889
  29683.509        1.0244        1.61749
  29692.230        1.02368        1.61604
  29700.947        1.02348        1.61394
  29709.980        1.02151        1.61182
  29718.659        1.01961        1.61001
  29728.024        1.02098        1.60771
  29736.373        1.01992        1.60616
  29745.925        1.01866        1.60389
  29754.780        1.01705        1.60198
  29764.110        1.01735        1.59999
  29774.333        1.01699        1.59819
  29783.254        1.01625        1.59657
  29792.856        1.01373        1.59496
  29802.316        1.01403        1.59361
  29811.685        1.01327        1.59207
  29822.166        1.01143        1.59025
  29831.685        1.01118        1.58851
  29841.857        1.00979        1.58648
  29852.104        1.00868        1.58441
  29861.494        1.00868        1.58237
  29871.706        1.00738        1.58042
  29882.180        1.00664        1.57857
  29892.259        1.00592        1.57662
  29903.062        1.00489        1.57476
  29913.470        1.00433        1.57336
  29923.303        1.00287        1.57181
  29934.248        1.00244        1.56978
  29945.072        1.00121        1.56808
  29955.618        1.00068        1.56608
  29966.823       0.999707        1.56374
  29978.116       0.997314        1.56202
  29988.705       0.997327        1.56091
  29999.817       0.997364        1.55909
  30011.353       0.996213        1.55748
  30022.481       0.995422        1.55538
  30033.776       0.994191        1.55406
  30045.388       0.993794        1.55247
  30056.800       0.992907        1.55079
  30067.773       0.991575        1.54896
  30079.750       0.989079        1.54662
  30091.737       0.990109        1.54493
  30103.533       0.988697        1.54321
  30114.820       0.98757        1.54116
  30127.015       0.986865        1.53924
  30139.309       0.985896        1.53767
  30151.683       0.984847        1.53532
  30163.567       0.983975        1.53353
  30170.049       0.983053        1.53299