File: root/data/Ta2O5_311.xdi
# XDI/1.0 Demeter/0.9.26
# Beamline.name: BM08-GILDA
# Column.1: energy eV
# Column.2: mutrans
# Column.3: murefer
# Element.edge: L3
# Element.symbol: Ta
# Facility.name: ESRF
# Facility.xray_source: Bending magnet
# Mono.d_spacing: 1.63751
# Mono.name: Si(311)
# Mono.notes: water cooled
# Sample.formula: Ta2O5
# Sample.name: Tantalum(V) oxide
# Sample.reference: Ta metal foil
# Scan.start_time: 2016-07-11T11:52:00
# ///
# room temperature
#------------------------
#  energy  mutrans  murefer
  9681.72      -0.836606      -0.134232
  9711.85      -0.858254      -0.159536
  9742.1      -0.878807      -0.185961
  9772.56      -0.899453      -0.214373
  9803.23      -0.91924      -0.238632
  9834.12      -0.934703      -0.262493
  9855.05      -0.9318      -0.26511
  9861.31      -0.921809      -0.255969
  9862.18      -0.919777      -0.254244
  9863.05      -0.91716      -0.252031
  9863.91      -0.914333      -0.249198
  9864.78      -0.911145      -0.244896
  9865.65      -0.907112      -0.240271
  9866.52      -0.902915      -0.235601
  9867.4      -0.898081      -0.229606
  9868.27      -0.892291      -0.22301
  9869.13      -0.885996      -0.214578
  9870.05      -0.878297      -0.204673
  9870.97      -0.868818      -0.191402
  9871.85      -0.858365      -0.176903
  9872.75      -0.845854      -0.158218
  9873.62      -0.829462      -0.132965
  9874.49      -0.810747      -0.101622
  9875.34      -0.789961      -0.0653458
  9876.27      -0.760963      -0.0102231
  9877.15      -0.725208       0.0642446
  9878.02      -0.681423       0.163933
  9878.87      -0.626587       0.301458
  9879.78      -0.548594       0.510751
  9880.72      -0.43912       0.80429
  9881.59      -0.287915        1.17086
  9882.47      -0.0684582    1.60926
  9883.34       0.199596        2.02581
  9884.21       0.549514        2.41622
  9885.08       0.933629        2.65356
  9885.96        1.24612        2.60988
  9886.84        1.41032        2.35779
  9887.71        1.46291        2.04646
  9888.58        1.43836        1.79217
  9889.46        1.34783        1.58318
  9890.33        1.17009        1.42176
  9891.2       0.945562        1.31949
  9892.08       0.71176        1.25264
  9892.96       0.485366        1.19961
  9893.88       0.290588        1.15501
  9894.75       0.15394        1.11723
  9895.63       0.0555802    1.07967
  9896.51      -0.0151825    1.039
  9897.42      -0.0621254   0.999356
  9898.29      -0.0956954   0.96167
  9899.17      -0.121953       0.9269
  9900.05      -0.140722       0.901169
  9900.93      -0.156023       0.879724
  9901.8      -0.16849       0.860456
  9902.68      -0.17836       0.842324
  9903.56      -0.186324       0.824828
  9904.44      -0.193651       0.808234
  9905.36      -0.199624       0.795601
  9906.23      -0.204147       0.786344
  9907.11      -0.208529       0.78001
  9907.99      -0.212853       0.776347
  9908.87      -0.21756       0.773116
  9909.76      -0.223451       0.768418
  9910.67      -0.229887       0.762214
  9913.03      -0.24815       0.748169
  9916.07      -0.255285       0.744326
  9919.09      -0.230458       0.737595
  9922.11      -0.202206       0.710735
  9925.15      -0.169699       0.689396
  9928.23      -0.135361       0.698084
  9931.26      -0.104642       0.718511
  9934.29      -0.0807471   0.733929
  9937.32      -0.0733051   0.734487
  9940.35      -0.0799633   0.725747
  9943.38      -0.0953485   0.717303
  9946.46      -0.116274       0.711322
  9949.54      -0.138617       0.711039
  9952.61      -0.156551       0.718105
  9955.71      -0.169323       0.725181
  9958.75      -0.177562       0.725173
  9961.81      -0.181896       0.712455
  9964.86      -0.185658       0.695207
  9967.93      -0.191136       0.682369
  9971      -0.197464       0.678338
  9974.08      -0.202426       0.680897
  9977.14      -0.204333       0.680851
  9980.2      -0.203206       0.680025
  9987.07      -0.196813       0.682807
  9993.13      -0.189604       0.689817
  9999.18      -0.186963       0.696816
  10005.230      -0.184648       0.698812
  10011.281      -0.184555       0.687238
  10017.308      -0.188341       0.65968
  10023.351      -0.19894       0.640826
  10029.423      -0.208349       0.633981
  10035.505      -0.217789       0.631834
  10041.570      -0.226566       0.629521
  10047.645      -0.235319       0.628729
  10053.770      -0.245088       0.636061
  10059.904      -0.251455       0.657284
  10066.089      -0.26069       0.665894
  10072.239      -0.262546       0.637363
  10078.397      -0.265712       0.594997
  10084.520      -0.259136       0.570411
  10090.695      -0.272497       0.581841
  10096.878      -0.274595       0.578601
  10103.025      -0.278254       0.581152
  10109.180      -0.283924       0.584218
  10115.346      -0.289033       0.581301
  10121.585      -0.295048       0.581986
  10127.804      -0.296774       0.580578
  10134.015      -0.303783       0.581863
  10140.214      -0.307824       0.569876
  10146.415      -0.315469       0.553252
  10152.628      -0.322325       0.539566
  10158.893      -0.329621       0.528235
  10165.122      -0.336102       0.523449
  10171.347      -0.340748       0.521523
  10177.605      -0.345636       0.522983
  10183.860      -0.349701       0.524171
  10190.122      -0.353569       0.522756
  10196.393      -0.356606       0.51801
  10202.672      -0.362074       0.511037
  10208.959      -0.3671       0.502583
  10215.255      -0.370583       0.492302
  10221.559      -0.375666       0.484074
  10227.871      -0.380188       0.474208
  10234.254      -0.384394       0.467308
  10240.612      -0.387869       0.46225
  10246.949      -0.392513       0.459089
  10253.299      -0.396157       0.455485
  10259.651      -0.399129       0.449615
  10266.014      -0.40495       0.447556
  10272.386      -0.409333       0.442838
  10278.767      -0.413736       0.438939
  10289.011      -0.421606       0.43097
  10301.007      -0.429283       0.416169
  10313.029      -0.434879       0.40171
  10325.134      -0.439947       0.389334
  10337.220      -0.446206       0.379776
  10349.337      -0.453038       0.372952
  10361.484      -0.463282       0.363038
  10373.662      -0.468596       0.354921
  10385.871      -0.470624       0.344793
  10398.105      -0.479029       0.333555
  10410.382      -0.482453       0.323266
  10422.685      -0.500758       0.286665
  10435.018      -0.498447       0.290099
  10447.384      -0.502201       0.282172
  10459.780      -0.503059       0.278214
  10472.209      -0.506494       0.268922
  10484.687      -0.512402       0.261249
  10497.256      -0.521006       0.247959
  10509.878      -0.524738       0.237113
  10522.432      -0.527429       0.225278
  10535.021      -0.532359       0.211748
  10547.642      -0.535827       0.19967
  10560.344      -0.542065       0.190021
  10573.079      -0.548718       0.181863
  10585.895      -0.554429       0.17437
  10598.696      -0.562025       0.164427
  10611.482      -0.56913       0.140879
  10624.350      -0.570189       0.142634
  10637.202      -0.577712       0.129397
  10650.088      -0.5862       0.116459
  10663.057      -0.595359       0.100769
  10676.010      -0.608277       0.0868187
  10689.016      -0.616459       0.0781384
  10702.076      -0.623874       0.0775306
  10715.122      -0.633305       0.0667108
  10728.211      -0.643352       0.0561549
  10741.384      -0.654502       0.0438075
  10754.592      -0.666047       0.033865
  10767.785      -0.676252       0.0202213
  10781.011      -0.686628       0.00953985
  10794.275      -0.698303      -0.00350939
  10807.572      -0.710667      -0.0135889
  10820.904      -0.72115      -0.0232284
  10834.272      -0.728737      -0.0326829
  10847.776      -0.7395      -0.0420849
  10852.252      -0.742365      -0.0467288