File: root/data/Ti_foil_111.xdi
# XDI/1.0 Demeter/0.9.26
# Beamline.name: BM08-LISA
# Column.1: energy eV
# Column.2: mutrans
# Element.edge: K
# Element.symbol: Ti
# Facility.name: ESRF
# Facility.xray_source: Bending magnet
# Mono.d_spacing: 3.134692
# Mono.name: Si(111)
# Mono.notes: LNT cooled
# Sample.formula: Ti
# Sample.name: Ti metal foil
# Scan.start_time: 2017-04-08T13:49:32
# ///
# room temperature
#------------------------
#   energy  mutrans
  4865.87      -0.899842
  4880.86      -0.91573
  4895.97      -0.931449
  4910.84      -0.946605
  4925.96      -0.961512
  4941.14      -0.975453
  4956.19      -0.984847
  4961.71      -0.979418
  4962.44      -0.976421
  4963.19      -0.971644
  4964.17      -0.959283
  4964.65      -0.946796
  4965.4      -0.900302
  4966.15      -0.741885
  4966.89      -0.490244
  4967.63      -0.489601
  4968.36      -0.585699
  4969.11      -0.596759
  4969.85      -0.546109
  4970.61      -0.48312
  4971.61      -0.431701
  4972.12      -0.417742
  4973.08      -0.368007
  4973.59      -0.320313
  4974.33      -0.234377
  4975.07      -0.147263
  4976.07      -0.0388353
  4976.57       0.0151243
  4977.56       0.120817
  4978.07       0.169277
  4978.81       0.229181
  4979.54       0.275404
  4980.29       0.311375
  4981.04       0.336694
  4981.79       0.354897
  4982.52       0.369374
  4983.26       0.383146
  4983.99       0.396001
  4984.73       0.404593
  4985.48       0.403739
  4986.23       0.391999
  4986.98       0.372924
  4987.71       0.353817
  4988.44       0.339146
  4989.17       0.330839
  4989.91       0.327401
  4990.9       0.324588
  4991.41       0.322794
  4992.15       0.319185
  4992.9       0.314247
  4993.89       0.307988
  4994.4       0.306368
  4995.15       0.30783
  4995.9       0.315132
  4996.66       0.329116
  4997.41       0.349175
  4998.17       0.374525
  4998.91       0.401112
  4999.92       0.430987
  5000.41       0.441912
  5001.16       0.452384
  5001.91       0.455859
  5002.9       0.453581
  5003.4       0.451749
  5004.16       0.448928
  5004.92       0.445808
  5005.94       0.438195
  5006.94       0.422594
  5008.96       0.367734
  5010.95       0.313832
  5012.94       0.284814
  5014.92       0.267752
  5016.9       0.250072
  5019.42       0.227309
  5021.45       0.212237
  5023.49       0.20134
  5025.99       0.199258
  5027.97       0.205845
  5030.46       0.220695
  5032.92       0.254243
  5035.4       0.302234
  5037.86       0.343627
  5040.37       0.365861
  5042.83       0.363993
  5045.33       0.347431
  5047.84       0.317488
  5050.37       0.277277
  5053.33       0.224293
  5055.8       0.188543
  5058.76       0.168333
  5061.73       0.164619
  5064.21       0.157636
  5067.21       0.141128
  5070.23       0.126556
  5073.22       0.118798
  5076.2       0.123446
  5079.69       0.147063
  5082.69       0.178856
  5085.73       0.215096
  5089.24       0.253611
  5092.26       0.269168
  5095.77       0.249521
  5099.3       0.195758
  5102.31       0.141582
  5105.83       0.0941652
  5109.34       0.0775394
  5112.85       0.0747463
  5116.41       0.0719962
  5120.48       0.0682107
  5123.98       0.0620316
  5127.45       0.0527771
  5131.37       0.0437337
  5134.85       0.041785
  5138.86       0.0483326
  5142.88       0.0614218
  5146.92       0.0775875
  5150.94       0.0868195
  5154.97       0.0787677
  5158.99       0.0578855
  5163.06       0.0354685
  5167.16       0.0190163
  5171.2       0.00275854
  5175.76      -0.021715
  5179.77      -0.0397674
  5184.28      -0.0510124
  5188.78      -0.0558094
  5192.79      -0.05876
  5197.3      -0.0603084
  5201.76      -0.0609303
  5206.25      -0.0589191
  5210.76      -0.056428
  5215.74      -0.058087
  5220.2      -0.0657108
  5224.66      -0.0746442
  5229.58      -0.082604
  5234.06      -0.0910262
  5239.08      -0.103906
  5244.07      -0.11821
  5248.6      -0.13112
  5253.59      -0.144572
  5258.54      -0.156279
  5263.57      -0.165175
  5268.59      -0.170754
  5274.03      -0.173944
  5278.96      -0.175962
  5283.94      -0.178666
  5289.4      -0.182906
  5294.44      -0.18978
  5299.9      -0.199094
  5305.32      -0.207357
  5310.78      -0.214708
  5316.29      -0.222626
  5321.77      -0.231079
  5327.25      -0.240259
  5332.77      -0.249669
  5338.31      -0.260145
  5343.83      -0.270861
  5349.85      -0.281381
  5355.39      -0.289055
  5361.41      -0.295383
  5367.48      -0.300044
  5373.04      -0.304175
  5379.04      -0.310304
  5384.96      -0.317866
  5390.94      -0.325892
  5396.96      -0.334042
  5403.52      -0.342624
  5409.55      -0.350789
  5415.58      -0.359251
  5422.22      -0.368445
  5428.32      -0.377164
  5434.87      -0.386472
  5441.41      -0.395108
  5447.42      -0.402746
  5453.91      -0.410482
  5460.43      -0.417657
  5466.91      -0.424752
  5473.43      -0.431996
  5480.42      -0.439752
  5486.86      -0.446878
  5493.28      -0.454423
  5500.23      -0.462432
  5506.73      -0.469771
  5513.74      -0.477723
  5520.71      -0.485787
  5527.7      -0.493959
  5534.78      -0.502409
  5541.77      -0.510654
  5548.62      -0.518423
  5555.61      -0.526126
  5562.58      -0.533527
  5569.58      -0.541107
  5576.99      -0.549165
  5583.93      -0.556561
  5591.45      -0.564359
  5598.89      -0.572145
  5605.87      -0.579406
  5613.45      -0.587351
  5621.01      -0.595533
  5628.5      -0.603657
  5636.03      -0.611843
  5644.05      -0.620644
  5651.65      -0.628776
  5659.16      -0.636952
  5667.09      -0.645011
  5674.58      -0.65264
  5682.66      -0.660983
  5690.68      -0.669229
  5698.18      -0.67692
  5706.32      -0.685096
  5714.46      -0.693233
  5722.53      -0.701302
  5730.61      -0.709252
  5739.15      -0.717795
  5747.13      -0.725695
  5755.1      -0.733706
  5763.6      -0.742088
  5771.64      -0.750018
  5780.07      -0.758332
  5788.49      -0.766495
  5796.94      -0.77462
  5805.45      -0.782707
  5813.9      -0.790752
  5822.35      -0.798758
  5830.93      -0.8068
  5839.45      -0.81468
  5847.83      -0.822389
  5856.81      -0.830634
  5865.26      -0.838488
  5874.24      -0.846613
  5883.08      -0.85479
  5891.57      -0.862534
  5900.49      -0.87059
  5909.44      -0.878565
  5918.48      -0.88672
  5927.52      -0.894635
  5937.09      -0.903083
  5946.09      -0.910938
  5955.13      -0.918826
  5964.75      -0.92716
  5973.73      -0.934884
  5983.17      -0.942881
  5992.67      -0.95092
  6001.76      -0.958649
  6011.25      -0.9665
  6020.8      -0.97439
  6030.49      -0.982531
  6040.09      -0.990321
  6050.18      -0.998725
  6059.8       -1.00667
  6069.27       -1.01425
  6079.26       -1.02241
  6088.76       -1.03009
  6098.81       -1.03807
  6108.73       -1.04595
  6118.63       -1.0537
  6128.58       -1.06151
  6138.66       -1.06939
  6148.6       -1.0771
  6158.55       -1.08484
  6168.65       -1.09256
  6178.66       -1.10024
  6189.02       -1.10809
  6199.07       -1.11581
  6209.51       -1.12354
  6219.91       -1.13131
  6229.78       -1.13862
  6240.29       -1.14636
  6250.69       -1.15387
  6261.13       -1.16149
  6271.73       -1.16921
  6282.8       -1.17713
  6293.34       -1.18475
  6303.81       -1.19201
  6314.96       -1.19998
  6325.44       -1.20736
  6336.35       -1.21499
  6346.85       -1.22222
  6357.91       -1.22979
  6368.93       -1.23731
  6380       -1.24489
  6391.2       -1.25247
  6402.28       -1.25995
  6413.91       -1.26773
  6425.03       -1.27504
  6436.05       -1.28228
  6447.49       -1.28987
  6458.49       -1.29691
  6470.02       -1.30452
  6481.45       -1.31179
  6492.82       -1.31902